*RAS_DATA_START
*RAS_HEADER_START
*CORR_POS_DB_NAME "Sample"
*CORR_POS_GONIO_RADIUS ""
*CORR_POS_NODE_INDEX01 ""
*CORR_POS_NODE_INDEX02 ""
*CORR_POS_NODE_INDEX03 ""
*CORR_POS_NODE_INDEX04 ""
*CORR_POS_NODE_INDEX05 ""
*CORR_POS_NODE_INDEX06 ""
*CORR_POS_NODE_INDEX07 ""
*CORR_POS_NODE_INDEX08 ""
*CORR_POS_NODE_INDEX09 ""
*CORR_POS_NODE_INDEX10 ""
*CORR_POS_NODE_INDEX11 ""
*CORR_POS_NODE_LABEL01 "Si(111)"
*CORR_POS_NODE_LABEL02 "Si(220)"
*CORR_POS_NODE_LABEL03 "Si(311)"
*CORR_POS_NODE_LABEL04 "Si(400)"
*CORR_POS_NODE_LABEL05 "Si(331)"
*CORR_POS_NODE_LABEL06 "Si(422)"
*CORR_POS_NODE_LABEL07 "Si(511)"
*CORR_POS_NODE_LABEL08 "Si(440)"
*CORR_POS_NODE_LABEL09 "Si(531)"
*CORR_POS_NODE_LABEL10 "Si(620)"
*CORR_POS_NODE_LABEL11 "Si(533)"
*CORR_POS_NODE_POS_CALC01 "28.377"
*CORR_POS_NODE_POS_CALC02 "47.2506"
*CORR_POS_NODE_POS_CALC03 "56.0725"
*CORR_POS_NODE_POS_CALC04 "69.0822"
*CORR_POS_NODE_POS_CALC05 "76.3294"
*CORR_POS_NODE_POS_CALC06 "87.9853"
*CORR_POS_NODE_POS_CALC07 "94.9091"
*CORR_POS_NODE_POS_CALC08 "106.668"
*CORR_POS_NODE_POS_CALC09 "114.054"
*CORR_POS_NODE_POS_CALC10 "127.511"
*CORR_POS_NODE_POS_CALC11 "136.864"
*CORR_POS_NODE_POS_MEAS01 "28.377"
*CORR_POS_NODE_POS_MEAS02 "47.2506"
*CORR_POS_NODE_POS_MEAS03 "56.0725"
*CORR_POS_NODE_POS_MEAS04 "69.0822"
*CORR_POS_NODE_POS_MEAS05 "76.3294"
*CORR_POS_NODE_POS_MEAS06 "87.9853"
*CORR_POS_NODE_POS_MEAS07 "94.9091"
*CORR_POS_NODE_POS_MEAS08 "106.668"
*CORR_POS_NODE_POS_MEAS09 "114.054"
*CORR_POS_NODE_POS_MEAS10 "127.511"
*CORR_POS_NODE_POS_MEAS11 "136.864"
*CORR_POS_OPT_ATTR "集中法"
*CORR_POS_PARAM_MU ""
*CORR_POS_PARAM_PL ""
*CORR_POS_SEMODEL_TYPE "0"
*CORR_POS_STANDARD_TYPE ""
*CORR_POS_VALUE_ANALYZER "None"
*CORR_POS_VALUE_CMONO "None"
*CORR_POS_VALUE_IMONO "None"
*CORR_POS_VALUE_IS "1.250deg"
*CORR_POS_VALUE_ISL "10.0mm"
*CORR_POS_VALUE_ISOLLER "5.0deg"
*CORR_POS_VALUE_RS1 "1.250deg"
*CORR_POS_VALUE_RS2 "0.3mm"
*CORR_POS_VALUE_RSOLLER "5.0deg"
*CORR_POS_XG_FOCUS_L ""
*CORR_POS_XG_WAVE_TYPE ""
*CORR_POS_XG_WAVE_VALUE ""
*DISP_FMT_X "%.2f"
*DISP_FMT_Y "%.0f"
*DISP_FULLSCALE "59580.0000000000"
*DISP_LINE_COLOR "255.0000000000"
*DISP_LINE_STYLE "0.0000000000"
*DISP_LINE_WIDTH "0.2500000000"
*DISP_NOTE "測定データ-1"
*DISP_OFFSET_Y "0.0000000000"
*DISP_PEAKSEARCH_UNIT_Y "CPS"
*DISP_RANGE_BOTTOM "0.0000000000"
*DISP_RANGE_LEFT "3.0000000000"
*DISP_RANGE_LOGCUTOFF "0.0100000000"
*DISP_RANGE_RIGHT "55.0000000000"
*DISP_RANGE_TOP "59580.0000000000"
*DISP_SCALE_MODE_Y "0.0000000000"
*DISP_TAB_NAME "2θ/θ"
*DISP_TITLE_Y "強度"
*DISP_UNIT_Y "CPS"
*DISP_WINDOW_NAME "MSG_MACROENGINE"
*FILE_COMMENT " "
*FILE_MD5 ""
*FILE_MEMO " "
*FILE_OPERATOR "Administrator"
*FILE_PART_ID "MEAS_PBEA_00223"
*FILE_SAMPLE " "
*FILE_TYPE "RAS_RAW"
*FILE_USERGROUP "システムマネージャ"
*FILE_VERSION "1.0000000000"
*HW_ATTACHMENT_ID "ATT1031"
*HW_ATTACHMENT_NAME "6サンプルチェンジャ|ASC-6"
*HW_COUNTER_ID-0 "CUT0025"
*HW_COUNTER_ID-1 "CUT0020"
*HW_COUNTER_ID-2 "CUT0020"
*HW_COUNTER_ID-3 "CMC0021"
*HW_COUNTER_NAME-0 "D/teX Ultra|D/teX Ultra"
*HW_COUNTER_NAME-1 "None|None"
*HW_COUNTER_NAME-2 "None|None"
*HW_COUNTER_NAME-3 "検出器モノクロメータ|Detector monochromator"
*HW_COUNTER_SELECT_NAME "D/teX Ultra|D/teX Ultra"
*HW_GONIOMETER_ID "GON0070"
*HW_GONIOMETER_NAME "MiniFlex 300/600|MiniFlex 300/600"
*HW_GONIOMETER_RADIUS-0 "79.0"
*HW_GONIOMETER_RADIUS-1 "91.5"
*HW_GONIOMETER_RADIUS-2 "150.0"
*HW_GONIOMETER_RADIUS-3 "0"
*HW_GONIOMETER_RADIUS-4 "103.4"
*HW_GONIOMETER_RADIUS-5 "150.0"
*HW_GONIOMETER_RADIUS-6 "46.6"
*HW_GONIOMETER_RADIUS-7 "160.0"
*HW_I_OPT_ID-0 "ISL0021"
*HW_I_OPT_ID-1 "ISO0021"
*HW_I_OPT_NAME-0 "発散スリット|Divergence slit"
*HW_I_OPT_NAME-1 "入射平行スリット|Incident parallel slit"
*HW_R_ATTENUATER_AUTOMODE "0"
*HW_R_OPT_ID-0 "RSS0021"
*HW_R_OPT_ID-1 "RSO0021"
*HW_R_OPT_ID-2 "RRS0021"
*HW_R_OPT_NAME-0 "散乱スリット|Scattering slit"
*HW_R_OPT_NAME-1 "受光平行スリット|Receiving soller slit"
*HW_R_OPT_NAME-2 "受光スリット|Receiving slit"
*HW_SAMPLE_HOLDER_ID "SMP0000"
*HW_SAMPLE_HOLDER_NAME "無し|None"
*HW_XG_CURRENT_MAX "15"
*HW_XG_CURRENT_MIN "2"
*HW_XG_CURRENT_RESOLUTION "1"
*HW_XG_CURRENT_UNIT "mA"
*HW_XG_FOCUS "1mm x 10mm"
*HW_XG_FOCUS_TYPE "Normal"
*HW_XG_ID "1060"
*HW_XG_NAME "300W/600W 封入管-B|300W/600W Sealed tube-B"
*HW_XG_TARGET_ATOMIC_NUMBER "29.0000000000"
*HW_XG_TARGET_NAME "Cu"
*HW_XG_TYPE "Hermetic"
*HW_XG_VOLTAGE_MAX "40"
*HW_XG_VOLTAGE_MIN "20"
*HW_XG_VOLTAGE_RESOLUTION "1"
*HW_XG_VOLTAGE_UNIT "kV"
*HW_XG_WATT_MAX "1"
*HW_XG_WATT_UNIT "kW"
*HW_XG_WAVE_LENGTH_ALPHA1 "1.540593"
*HW_XG_WAVE_LENGTH_ALPHA2 "1.544414"
*HW_XG_WAVE_LENGTH_BETA "1.392250"
*MEAS_COND_AXIS_NAME-0 "2θ/θ"
*MEAS_COND_AXIS_NAME-1 "試料回転"
*MEAS_COND_AXIS_NAME-2 "試料交換"
*MEAS_COND_AXIS_NAME-3 "Soller(inc.)"
*MEAS_COND_AXIS_NAME-4 "IHS"
*MEAS_COND_AXIS_NAME-5 "DS"
*MEAS_COND_AXIS_NAME-6 "SS"
*MEAS_COND_AXIS_NAME-7 "Soller(rec.)"
*MEAS_COND_AXIS_NAME-8 "RS"
*MEAS_COND_AXIS_NAME-9 "フィルター"
*MEAS_COND_AXIS_NAME-10 "モノクロメータ"
*MEAS_COND_AXIS_NAME-11 "PHA"
*MEAS_COND_AXIS_NAME_INTERNAL-0 "TwoThetaTheta"
*MEAS_COND_AXIS_NAME_INTERNAL-1 "Spin"
*MEAS_COND_AXIS_NAME_INTERNAL-2 "Change"
*MEAS_COND_AXIS_NAME_INTERNAL-3 "IncidentSollerSlit"
*MEAS_COND_AXIS_NAME_INTERNAL-4 "IncidentAxdSlit"
*MEAS_COND_AXIS_NAME_INTERNAL-5 "IncidentSlitBox"
*MEAS_COND_AXIS_NAME_INTERNAL-6 "ReceivingSlitBox1"
*MEAS_COND_AXIS_NAME_INTERNAL-7 "ReceivingSollerSlit"
*MEAS_COND_AXIS_NAME_INTERNAL-8 "ReceivingSlitBox2"
*MEAS_COND_AXIS_NAME_INTERNAL-9 "Filter"
*MEAS_COND_AXIS_NAME_INTERNAL-10 "CounterMonochromator"
*MEAS_COND_AXIS_NAME_INTERNAL-11 "PHA"
*MEAS_COND_AXIS_NAME_MAGICNO-0 "268632064.0000000000"
*MEAS_COND_AXIS_NAME_MAGICNO-1 "16842752.0000000000"
*MEAS_COND_AXIS_NAME_MAGICNO-2 "16842752.0000000000"
*MEAS_COND_AXIS_NAME_MAGICNO-3 "20971521.0000000000"
*MEAS_COND_AXIS_NAME_MAGICNO-4 "22020097.0000000000"
*MEAS_COND_AXIS_NAME_MAGICNO-5 "22020097.0000000000"
*MEAS_COND_AXIS_NAME_MAGICNO-6 "23068673.0000000000"
*MEAS_COND_AXIS_NAME_MAGICNO-7 "20971521.0000000000"
*MEAS_COND_AXIS_NAME_MAGICNO-8 "23068673.0000000000"
*MEAS_COND_AXIS_NAME_MAGICNO-9 "20971521.0000000000"
*MEAS_COND_AXIS_NAME_MAGICNO-10 "20971521.0000000000"
*MEAS_COND_AXIS_NAME_MAGICNO-11 "0.0000000000"
*MEAS_COND_AXIS_OFFSET-0 "0.0000000000"
*MEAS_COND_AXIS_OFFSET-1 "-"
*MEAS_COND_AXIS_OFFSET-2 "-"
*MEAS_COND_AXIS_OFFSET-3 "-"
*MEAS_COND_AXIS_OFFSET-4 "-"
*MEAS_COND_AXIS_OFFSET-5 "-"
*MEAS_COND_AXIS_OFFSET-6 "-"
*MEAS_COND_AXIS_OFFSET-7 "-"
*MEAS_COND_AXIS_OFFSET-8 "-"
*MEAS_COND_AXIS_OFFSET-9 "-"
*MEAS_COND_AXIS_OFFSET-10 "-"
*MEAS_COND_AXIS_OFFSET-11 "-"
*MEAS_COND_AXIS_POSITION-0 "10.0000000000"
*MEAS_COND_AXIS_POSITION-1 "0.0000000000"
*MEAS_COND_AXIS_POSITION-2 "4.0000000000"
*MEAS_COND_AXIS_POSITION-3 "2.5deg"
*MEAS_COND_AXIS_POSITION-4 "10.0mm"
*MEAS_COND_AXIS_POSITION-5 "1.250deg"
*MEAS_COND_AXIS_POSITION-6 "13.0mm(Open)"
*MEAS_COND_AXIS_POSITION-7 "2.5deg"
*MEAS_COND_AXIS_POSITION-8 "13.0mm"
*MEAS_COND_AXIS_POSITION-9 "K-beta(x1)"
*MEAS_COND_AXIS_POSITION-10 "None"
*MEAS_COND_AXIS_POSITION-11 "34.0000000000"
*MEAS_COND_AXIS_UNIT-0 "deg"
*MEAS_COND_AXIS_UNIT-1 ""
*MEAS_COND_AXIS_UNIT-2 ""
*MEAS_COND_AXIS_UNIT-3 ""
*MEAS_COND_AXIS_UNIT-4 ""
*MEAS_COND_AXIS_UNIT-5 ""
*MEAS_COND_AXIS_UNIT-6 ""
*MEAS_COND_AXIS_UNIT-7 ""
*MEAS_COND_AXIS_UNIT-8 ""
*MEAS_COND_AXIS_UNIT-9 ""
*MEAS_COND_AXIS_UNIT-10 ""
*MEAS_COND_AXIS_UNIT-11 "div"
*MEAS_COND_COUNTER_CNTLOSS_CORR "0.0000000000"
*MEAS_COND_COUNTER_PHABASE "34.0000000000"
*MEAS_COND_COUNTER_PHAWINDOW "14.0000000000"
*MEAS_COND_COUNTER_PHA_UNIT "div"
*MEAS_COND_COUNTER_TAUDIFF "0.2500000000"
*MEAS_COND_COUNTER_TAUINT "0.7500000000"
*MEAS_COND_IRRADIATION_MODE "OFF"
*MEAS_COND_IRRADIATION_WIDTH ""
*MEAS_COND_OPT_ATTR " "
*MEAS_COND_OPT_NAME ""
*MEAS_COND_UNSYMMETRIC_MODE "OFF"
*MEAS_COND_XG_CURRENT "15.0000000000"
*MEAS_COND_XG_VOLTAGE "40.0000000000"
*MEAS_COND_XG_WAVE_TYPE "Ka"
*MEAS_DATA_COUNT "5201.0000000000"
*MEAS_SCAN_AXIS_X "2θ/θ"
*MEAS_SCAN_AXIS_X_INTERNAL "TwoThetaTheta"
*MEAS_SCAN_END_TIME "11/22/23 15:11:09"
*MEAS_SCAN_MODE "CONTINUOUS"
*MEAS_SCAN_MONITOR "0"
*MEAS_SCAN_RESOLUTION_X "0.005"
*MEAS_SCAN_SPEED "10.000"
*MEAS_SCAN_SPEED_UNIT "deg/min"
*MEAS_SCAN_SPEED_USER "10.000"
*MEAS_SCAN_START "3.0000000000"
*MEAS_SCAN_START_TIME "11/22/23 15:05:13"
*MEAS_SCAN_STEP "0.0100000000"
*MEAS_SCAN_STOP "55.0000000000"
*MEAS_SCAN_UNIT_X "deg"
*MEAS_SCAN_UNIT_Y "counts"
*SLIT_SYSTEM "0"
*RAS_HEADER_END
*RAS_INT_START
3.000 76.000 1.000
3.010 83.000 1.000
3.020 88.000 1.000
3.030 93.000 1.000
3.040 93.000 1.000
3.050 100.000 1.000
3.060 103.000 1.000
3.070 100.000 1.000
3.080 88.000 1.000
3.090 87.000 1.000
3.100 87.000 1.000
3.110 75.000 1.000
3.120 74.000 1.000
3.130 81.000 1.000
3.140 92.000 1.000
3.150 95.000 1.000
3.160 100.000 1.000
3.170 106.000 1.000
3.180 104.000 1.000
3.190 100.000 1.000
3.200 98.000 1.000
3.210 83.000 1.000
3.220 92.000 1.000
3.230 100.000 1.000
3.240 100.000 1.000
3.250 110.000 1.000
3.260 100.000 1.000
3.270 93.000 1.000
3.280 106.000 1.000
3.290 95.000 1.000
3.300 114.000 1.000
3.310 106.000 1.000
3.320 118.000 1.000
3.330 119.000 1.000
3.340 109.000 1.000
3.350 120.000 1.000
3.360 106.000 1.000
3.370 112.000 1.000
3.380 102.000 1.000
3.390 84.000 1.000
3.400 97.000 1.000
3.410 90.000 1.000
3.420 105.000 1.000
3.430 107.000 1.000
3.440 95.000 1.000
3.450 91.000 1.000
3.460 97.000 1.000
3.470 105.000 1.000
3.480 106.000 1.000
3.490 104.000 1.000
3.500 97.000 1.000
3.510 89.000 1.000
3.520 93.000 1.000
3.530 75.000 1.000
3.540 71.000 1.000
3.550 75.000 1.000
3.560 75.000 1.000
3.570 70.000 1.000
3.580 89.000 1.000
3.590 77.000 1.000
3.600 74.000 1.000
3.610 77.000 1.000
3.620 76.000 1.000
3.630 85.000 1.000
3.640 78.000 1.000
3.650 83.000 1.000
3.660 86.000 1.000
3.670 87.000 1.000
3.680 80.000 1.000
3.690 71.000 1.000
3.700 73.000 1.000
3.710 74.000 1.000
3.720 68.000 1.000
3.730 76.000 1.000
3.740 84.000 1.000
3.750 88.000 1.000
3.760 78.000 1.000
3.770 87.000 1.000
3.780 71.000 1.000
3.790 67.000 1.000
3.800 77.000 1.000
3.810 91.000 1.000
3.820 86.000 1.000
3.830 73.000 1.000
3.840 80.000 1.000
3.850 90.000 1.000
3.860 83.000 1.000
3.870 78.000 1.000
3.880 87.000 1.000
3.890 82.000 1.000
3.900 76.000 1.000
3.910 72.000 1.000
3.920 73.000 1.000
3.930 90.000 1.000
3.940 93.000 1.000
3.950 73.000 1.000
3.960 77.000 1.000
3.970 71.000 1.000
3.980 68.000 1.000
3.990 77.000 1.000
4.000 80.000 1.000
4.010 77.000 1.000
4.020 86.000 1.000
4.030 72.000 1.000
4.040 77.000 1.000
4.050 68.000 1.000
4.060 61.000 1.000
4.070 70.000 1.000
4.080 81.000 1.000
4.090 70.000 1.000
4.100 70.000 1.000
4.110 80.000 1.000
4.120 89.000 1.000
4.130 81.000 1.000
4.140 74.000 1.000
4.150 83.000 1.000
4.160 82.000 1.000
4.170 71.000 1.000
4.180 74.000 1.000
4.190 70.000 1.000
4.200 63.000 1.000
4.210 57.000 1.000
4.220 65.000 1.000
4.230 81.000 1.000
4.240 69.000 1.000
4.250 75.000 1.000
4.260 73.000 1.000
4.270 72.000 1.000
4.280 71.000 1.000
4.290 67.000 1.000
4.300 57.000 1.000
4.310 69.000 1.000
4.320 78.000 1.000
4.330 75.000 1.000
4.340 67.000 1.000
4.350 63.000 1.000
4.360 54.000 1.000
4.370 53.000 1.000
4.380 55.000 1.000
4.390 70.000 1.000
4.400 66.000 1.000
4.410 56.000 1.000
4.420 63.000 1.000
4.430 75.000 1.000
4.440 66.000 1.000
4.450 63.000 1.000
4.460 67.000 1.000
4.470 67.000 1.000
4.480 66.000 1.000
4.490 63.000 1.000
4.500 64.000 1.000
4.510 57.000 1.000
4.520 66.000 1.000
4.530 66.000 1.000
4.540 59.000 1.000
4.550 71.000 1.000
4.560 63.000 1.000
4.570 59.000 1.000
4.580 54.000 1.000
4.590 53.000 1.000
4.600 66.000 1.000
4.610 57.000 1.000
4.620 67.000 1.000
4.630 66.000 1.000
4.640 62.000 1.000
4.650 68.000 1.000
4.660 68.000 1.000
4.670 67.000 1.000
4.680 76.000 1.000
4.690 71.000 1.000
4.700 64.000 1.000
4.710 65.000 1.000
4.720 60.000 1.000
4.730 61.000 1.000
4.740 60.000 1.000
4.750 65.000 1.000
4.760 68.000 1.000
4.770 65.000 1.000
4.780 55.000 1.000
4.790 56.000 1.000
4.800 59.000 1.000
4.810 56.000 1.000
4.820 68.000 1.000
4.830 66.000 1.000
4.840 61.000 1.000
4.850 69.000 1.000
4.860 74.000 1.000
4.870 66.000 1.000
4.880 51.000 1.000
4.890 56.000 1.000
4.900 58.000 1.000
4.910 60.000 1.000
4.920 71.000 1.000
4.930 73.000 1.000
4.940 68.000 1.000
4.950 69.000 1.000
4.960 72.000 1.000
4.970 72.000 1.000
4.980 80.000 1.000
4.990 67.000 1.000
5.000 74.000 1.000
5.010 73.000 1.000
5.020 73.000 1.000
5.030 63.000 1.000
5.040 64.000 1.000
5.050 66.000 1.000
5.060 63.000 1.000
5.070 53.000 1.000
5.080 54.000 1.000
5.090 61.000 1.000
5.100 78.000 1.000
5.110 68.000 1.000
5.120 68.000 1.000
5.130 72.000 1.000
5.140 80.000 1.000
5.150 76.000 1.000
5.160 79.000 1.000
5.170 75.000 1.000
5.180 66.000 1.000
5.190 64.000 1.000
5.200 72.000 1.000
5.210 72.000 1.000
5.220 65.000 1.000
5.230 69.000 1.000
5.240 73.000 1.000
5.250 78.000 1.000
5.260 69.000 1.000
5.270 76.000 1.000
5.280 82.000 1.000
5.290 69.000 1.000
5.300 65.000 1.000
5.310 68.000 1.000
5.320 68.000 1.000
5.330 75.000 1.000
5.340 75.000 1.000
5.350 72.000 1.000
5.360 80.000 1.000
5.370 69.000 1.000
5.380 65.000 1.000
5.390 72.000 1.000
5.400 67.000 1.000
5.410 70.000 1.000
5.420 72.000 1.000
5.430 62.000 1.000
5.440 63.000 1.000
5.450 70.000 1.000
5.460 70.000 1.000
5.470 52.000 1.000
5.480 63.000 1.000
5.490 65.000 1.000
5.500 62.000 1.000
5.510 55.000 1.000
5.520 73.000 1.000
5.530 82.000 1.000
5.540 68.000 1.000
5.550 54.000 1.000
5.560 53.000 1.000
5.570 65.000 1.000
5.580 67.000 1.000
5.590 72.000 1.000
5.600 70.000 1.000
5.610 64.000 1.000
5.620 59.000 1.000
5.630 57.000 1.000
5.640 58.000 1.000
5.650 68.000 1.000
5.660 67.000 1.000
5.670 76.000 1.000
5.680 69.000 1.000
5.690 66.000 1.000
5.700 69.000 1.000
5.710 70.000 1.000
5.720 60.000 1.000
5.730 51.000 1.000
5.740 46.000 1.000
5.750 54.000 1.000
5.760 56.000 1.000
5.770 54.000 1.000
5.780 59.000 1.000
5.790 67.000 1.000
5.800 59.000 1.000
5.810 65.000 1.000
5.820 67.000 1.000
5.830 64.000 1.000
5.840 65.000 1.000
5.850 57.000 1.000
5.860 65.000 1.000
5.870 67.000 1.000
5.880 59.000 1.000
5.890 63.000 1.000
5.900 54.000 1.000
5.910 64.000 1.000
5.920 65.000 1.000
5.930 71.000 1.000
5.940 71.000 1.000
5.950 68.000 1.000
5.960 61.000 1.000
5.970 60.000 1.000
5.980 70.000 1.000
5.990 67.000 1.000
6.000 62.000 1.000
6.010 62.000 1.000
6.020 59.000 1.000
6.030 55.000 1.000
6.040 57.000 1.000
6.050 59.000 1.000
6.060 62.000 1.000
6.070 62.000 1.000
6.080 59.000 1.000
6.090 52.000 1.000
6.100 54.000 1.000
6.110 59.000 1.000
6.120 63.000 1.000
6.130 59.000 1.000
6.140 57.000 1.000
6.150 50.000 1.000
6.160 58.000 1.000
6.170 58.000 1.000
6.180 58.000 1.000
6.190 59.000 1.000
6.200 59.000 1.000
6.210 55.000 1.000
6.220 60.000 1.000
6.230 52.000 1.000
6.240 56.000 1.000
6.250 66.000 1.000
6.260 57.000 1.000
6.270 67.000 1.000
6.280 76.000 1.000
6.290 76.000 1.000
6.300 58.000 1.000
6.310 57.000 1.000
6.320 66.000 1.000
6.330 66.000 1.000
6.340 68.000 1.000
6.350 66.000 1.000
6.360 57.000 1.000
6.370 67.000 1.000
6.380 74.000 1.000
6.390 58.000 1.000
6.400 58.000 1.000
6.410 68.000 1.000
6.420 64.000 1.000
6.430 68.000 1.000
6.440 63.000 1.000
6.450 59.000 1.000
6.460 64.000 1.000
6.470 73.000 1.000
6.480 71.000 1.000
6.490 68.000 1.000
6.500 56.000 1.000
6.510 55.000 1.000
6.520 60.000 1.000
6.530 58.000 1.000
6.540 61.000 1.000
6.550 69.000 1.000
6.560 71.000 1.000
6.570 65.000 1.000
6.580 60.000 1.000
6.590 58.000 1.000
6.600 69.000 1.000
6.610 72.000 1.000
6.620 61.000 1.000
6.630 66.000 1.000
6.640 61.000 1.000
6.650 62.000 1.000
6.660 62.000 1.000
6.670 64.000 1.000
6.680 72.000 1.000
6.690 66.000 1.000
6.700 64.000 1.000
6.710 53.000 1.000
6.720 60.000 1.000
6.730 60.000 1.000
6.740 65.000 1.000
6.750 69.000 1.000
6.760 60.000 1.000
6.770 59.000 1.000
6.780 60.000 1.000
6.790 55.000 1.000
6.800 61.000 1.000
6.810 67.000 1.000
6.820 60.000 1.000
6.830 63.000 1.000
6.840 64.000 1.000
6.850 71.000 1.000
6.860 63.000 1.000
6.870 71.000 1.000
6.880 73.000 1.000
6.890 72.000 1.000
6.900 70.000 1.000
6.910 60.000 1.000
6.920 68.000 1.000
6.930 71.000 1.000
6.940 51.000 1.000
6.950 58.000 1.000
6.960 62.000 1.000
6.970 70.000 1.000
6.980 72.000 1.000
6.990 72.000 1.000
7.000 66.000 1.000
7.010 61.000 1.000
7.020 65.000 1.000
7.030 58.000 1.000
7.040 64.000 1.000
7.050 78.000 1.000
7.060 78.000 1.000
7.070 70.000 1.000
7.080 66.000 1.000
7.090 77.000 1.000
7.100 76.000 1.000
7.110 65.000 1.000
7.120 67.000 1.000
7.130 69.000 1.000
7.140 78.000 1.000
7.150 75.000 1.000
7.160 72.000 1.000
7.170 91.000 1.000
7.180 85.000 1.000
7.190 85.000 1.000
7.200 86.000 1.000
7.210 93.000 1.000
7.220 81.000 1.000
7.230 65.000 1.000
7.240 64.000 1.000
7.250 64.000 1.000
7.260 68.000 1.000
7.270 73.000 1.000
7.280 78.000 1.000
7.290 65.000 1.000
7.300 90.000 1.000
7.310 78.000 1.000
7.320 77.000 1.000
7.330 70.000 1.000
7.340 67.000 1.000
7.350 74.000 1.000
7.360 72.000 1.000
7.370 81.000 1.000
7.380 81.000 1.000
7.390 70.000 1.000
7.400 70.000 1.000
7.410 75.000 1.000
7.420 76.000 1.000
7.430 75.000 1.000
7.440 75.000 1.000
7.450 73.000 1.000
7.460 65.000 1.000
7.470 67.000 1.000
7.480 74.000 1.000
7.490 65.000 1.000
7.500 72.000 1.000
7.510 77.000 1.000
7.520 85.000 1.000
7.530 88.000 1.000
7.540 82.000 1.000
7.550 89.000 1.000
7.560 83.000 1.000
7.570 91.000 1.000
7.580 93.000 1.000
7.590 92.000 1.000
7.600 85.000 1.000
7.610 95.000 1.000
7.620 107.000 1.000
7.630 105.000 1.000
7.640 104.000 1.000
7.650 103.000 1.000
7.660 116.000 1.000
7.670 123.000 1.000
7.680 116.000 1.000
7.690 133.000 1.000
7.700 134.000 1.000
7.710 138.000 1.000
7.720 146.000 1.000
7.730 154.000 1.000
7.740 166.000 1.000
7.750 179.000 1.000
7.760 188.000 1.000
7.770 203.000 1.000
7.780 230.000 1.000
7.790 257.000 1.000
7.800 282.000 1.000
7.810 315.000 1.000
7.820 347.000 1.000
7.830 408.000 1.000
7.840 440.000 1.000
7.850 481.000 1.000
7.860 545.000 1.000
7.870 616.000 1.000
7.880 702.000 1.000
7.890 813.000 1.000
7.900 950.000 1.000
7.910 1063.000 1.000
7.920 1165.000 1.000
7.930 1341.000 1.000
7.940 1468.000 1.000
7.950 1539.000 1.000
7.960 1677.000 1.000
7.970 1761.000 1.000
7.980 1805.000 1.000
7.990 1786.000 1.000
8.000 1702.000 1.000
8.010 1507.000 1.000
8.020 1310.000 1.000
8.030 1058.000 1.000
8.040 832.000 1.000
8.050 586.000 1.000
8.060 452.000 1.000
8.070 373.000 1.000
8.080 296.000 1.000
8.090 251.000 1.000
8.100 223.000 1.000
8.110 197.000 1.000
8.120 188.000 1.000
8.130 173.000 1.000
8.140 154.000 1.000
8.150 148.000 1.000
8.160 145.000 1.000
8.170 145.000 1.000
8.180 139.000 1.000
8.190 151.000 1.000
8.200 146.000 1.000
8.210 147.000 1.000
8.220 139.000 1.000
8.230 122.000 1.000
8.240 143.000 1.000
8.250 131.000 1.000
8.260 117.000 1.000
8.270 115.000 1.000
8.280 131.000 1.000
8.290 137.000 1.000
8.300 124.000 1.000
8.310 102.000 1.000
8.320 90.000 1.000
8.330 96.000 1.000
8.340 99.000 1.000
8.350 96.000 1.000
8.360 94.000 1.000
8.370 100.000 1.000
8.380 92.000 1.000
8.390 112.000 1.000
8.400 96.000 1.000
8.410 89.000 1.000
8.420 106.000 1.000
8.430 117.000 1.000
8.440 124.000 1.000
8.450 111.000 1.000
8.460 113.000 1.000
8.470 114.000 1.000
8.480 115.000 1.000
8.490 107.000 1.000
8.500 102.000 1.000
8.510 91.000 1.000
8.520 94.000 1.000
8.530 107.000 1.000
8.540 113.000 1.000
8.550 115.000 1.000
8.560 95.000 1.000
8.570 89.000 1.000
8.580 107.000 1.000
8.590 106.000 1.000
8.600 102.000 1.000
8.610 109.000 1.000
8.620 102.000 1.000
8.630 104.000 1.000
8.640 105.000 1.000
8.650 96.000 1.000
