*RAS_DATA_START
*RAS_HEADER_START
*CORR_POS_DB_NAME "Sample"
*CORR_POS_GONIO_RADIUS ""
*CORR_POS_NODE_INDEX01 ""
*CORR_POS_NODE_INDEX02 ""
*CORR_POS_NODE_INDEX03 ""
*CORR_POS_NODE_INDEX04 ""
*CORR_POS_NODE_INDEX05 ""
*CORR_POS_NODE_INDEX06 ""
*CORR_POS_NODE_INDEX07 ""
*CORR_POS_NODE_INDEX08 ""
*CORR_POS_NODE_INDEX09 ""
*CORR_POS_NODE_INDEX10 ""
*CORR_POS_NODE_INDEX11 ""
*CORR_POS_NODE_LABEL01 "Si(111)"
*CORR_POS_NODE_LABEL02 "Si(220)"
*CORR_POS_NODE_LABEL03 "Si(311)"
*CORR_POS_NODE_LABEL04 "Si(400)"
*CORR_POS_NODE_LABEL05 "Si(331)"
*CORR_POS_NODE_LABEL06 "Si(422)"
*CORR_POS_NODE_LABEL07 "Si(511)"
*CORR_POS_NODE_LABEL08 "Si(440)"
*CORR_POS_NODE_LABEL09 "Si(531)"
*CORR_POS_NODE_LABEL10 "Si(620)"
*CORR_POS_NODE_LABEL11 "Si(533)"
*CORR_POS_NODE_POS_CALC01 "28.377"
*CORR_POS_NODE_POS_CALC02 "47.2506"
*CORR_POS_NODE_POS_CALC03 "56.0725"
*CORR_POS_NODE_POS_CALC04 "69.0822"
*CORR_POS_NODE_POS_CALC05 "76.3294"
*CORR_POS_NODE_POS_CALC06 "87.9853"
*CORR_POS_NODE_POS_CALC07 "94.9091"
*CORR_POS_NODE_POS_CALC08 "106.668"
*CORR_POS_NODE_POS_CALC09 "114.054"
*CORR_POS_NODE_POS_CALC10 "127.511"
*CORR_POS_NODE_POS_CALC11 "136.864"
*CORR_POS_NODE_POS_MEAS01 "28.377"
*CORR_POS_NODE_POS_MEAS02 "47.2506"
*CORR_POS_NODE_POS_MEAS03 "56.0725"
*CORR_POS_NODE_POS_MEAS04 "69.0822"
*CORR_POS_NODE_POS_MEAS05 "76.3294"
*CORR_POS_NODE_POS_MEAS06 "87.9853"
*CORR_POS_NODE_POS_MEAS07 "94.9091"
*CORR_POS_NODE_POS_MEAS08 "106.668"
*CORR_POS_NODE_POS_MEAS09 "114.054"
*CORR_POS_NODE_POS_MEAS10 "127.511"
*CORR_POS_NODE_POS_MEAS11 "136.864"
*CORR_POS_OPT_ATTR "集中法"
*CORR_POS_PARAM_MU ""
*CORR_POS_PARAM_PL ""
*CORR_POS_SEMODEL_TYPE "0"
*CORR_POS_STANDARD_TYPE ""
*CORR_POS_VALUE_ANALYZER "None"
*CORR_POS_VALUE_CMONO "None"
*CORR_POS_VALUE_IMONO "None"
*CORR_POS_VALUE_IS "1.250deg"
*CORR_POS_VALUE_ISL "10.0mm"
*CORR_POS_VALUE_ISOLLER "5.0deg"
*CORR_POS_VALUE_RS1 "1.250deg"
*CORR_POS_VALUE_RS2 "0.3mm"
*CORR_POS_VALUE_RSOLLER "5.0deg"
*CORR_POS_XG_FOCUS_L ""
*CORR_POS_XG_WAVE_TYPE ""
*CORR_POS_XG_WAVE_VALUE ""
*DISP_FMT_X "%.2f"
*DISP_FMT_Y "%.0f"
*DISP_FULLSCALE "39500.0000000000"
*DISP_LINE_COLOR "255.0000000000"
*DISP_LINE_STYLE "0.0000000000"
*DISP_LINE_WIDTH "0.2500000000"
*DISP_NOTE "測定データ-1"
*DISP_OFFSET_Y "0.0000000000"
*DISP_PEAKSEARCH_UNIT_Y "CPS"
*DISP_RANGE_BOTTOM "0.0000000000"
*DISP_RANGE_LEFT "3.0000000000"
*DISP_RANGE_LOGCUTOFF "0.0100000000"
*DISP_RANGE_RIGHT "55.0000000000"
*DISP_RANGE_TOP "39500.0000000000"
*DISP_SCALE_MODE_Y "0.0000000000"
*DISP_TAB_NAME "2θ/θ"
*DISP_TITLE_Y "強度"
*DISP_UNIT_Y "CPS"
*DISP_WINDOW_NAME "MSG_MACROENGINE"
*FILE_COMMENT " "
*FILE_MD5 ""
*FILE_MEMO " "
*FILE_OPERATOR "administrator"
*FILE_PART_ID "MEAS_PBEA_00223"
*FILE_SAMPLE " "
*FILE_TYPE "RAS_RAW"
*FILE_USERGROUP "システムマネージャ"
*FILE_VERSION "1.0000000000"
*HW_ATTACHMENT_ID "ATT1031"
*HW_ATTACHMENT_NAME "6サンプルチェンジャ|ASC-6"
*HW_COUNTER_ID-0 "CUT0025"
*HW_COUNTER_ID-1 "CUT0020"
*HW_COUNTER_ID-2 "CUT0020"
*HW_COUNTER_ID-3 "CMC0021"
*HW_COUNTER_NAME-0 "D/teX Ultra|D/teX Ultra"
*HW_COUNTER_NAME-1 "None|None"
*HW_COUNTER_NAME-2 "None|None"
*HW_COUNTER_NAME-3 "検出器モノクロメータ|Detector monochromator"
*HW_COUNTER_SELECT_NAME "D/teX Ultra|D/teX Ultra"
*HW_GONIOMETER_ID "GON0070"
*HW_GONIOMETER_NAME "MiniFlex 300/600|MiniFlex 300/600"
*HW_GONIOMETER_RADIUS-0 "79.0"
*HW_GONIOMETER_RADIUS-1 "91.5"
*HW_GONIOMETER_RADIUS-2 "150.0"
*HW_GONIOMETER_RADIUS-3 "0"
*HW_GONIOMETER_RADIUS-4 "103.4"
*HW_GONIOMETER_RADIUS-5 "150.0"
*HW_GONIOMETER_RADIUS-6 "46.6"
*HW_GONIOMETER_RADIUS-7 "160.0"
*HW_I_OPT_ID-0 "ISL0021"
*HW_I_OPT_ID-1 "ISO0021"
*HW_I_OPT_NAME-0 "発散スリット|Divergence slit"
*HW_I_OPT_NAME-1 "入射平行スリット|Incident parallel slit"
*HW_R_ATTENUATER_AUTOMODE "0"
*HW_R_OPT_ID-0 "RSS0021"
*HW_R_OPT_ID-1 "RSO0021"
*HW_R_OPT_ID-2 "RRS0021"
*HW_R_OPT_NAME-0 "散乱スリット|Scattering slit"
*HW_R_OPT_NAME-1 "受光平行スリット|Receiving soller slit"
*HW_R_OPT_NAME-2 "受光スリット|Receiving slit"
*HW_SAMPLE_HOLDER_ID "SMP0000"
*HW_SAMPLE_HOLDER_NAME "無し|None"
*HW_XG_CURRENT_MAX "15"
*HW_XG_CURRENT_MIN "2"
*HW_XG_CURRENT_RESOLUTION "1"
*HW_XG_CURRENT_UNIT "mA"
*HW_XG_FOCUS "1mm x 10mm"
*HW_XG_FOCUS_TYPE "Normal"
*HW_XG_ID "1060"
*HW_XG_NAME "300W/600W 封入管-B|300W/600W Sealed tube-B"
*HW_XG_TARGET_ATOMIC_NUMBER "29.0000000000"
*HW_XG_TARGET_NAME "Cu"
*HW_XG_TYPE "Hermetic"
*HW_XG_VOLTAGE_MAX "40"
*HW_XG_VOLTAGE_MIN "20"
*HW_XG_VOLTAGE_RESOLUTION "1"
*HW_XG_VOLTAGE_UNIT "kV"
*HW_XG_WATT_MAX "1"
*HW_XG_WATT_UNIT "kW"
*HW_XG_WAVE_LENGTH_ALPHA1 "1.540593"
*HW_XG_WAVE_LENGTH_ALPHA2 "1.544414"
*HW_XG_WAVE_LENGTH_BETA "1.392250"
*MEAS_COND_AXIS_NAME-0 "2θ/θ"
*MEAS_COND_AXIS_NAME-1 "試料回転"
*MEAS_COND_AXIS_NAME-2 "試料交換"
*MEAS_COND_AXIS_NAME-3 "Soller(inc.)"
*MEAS_COND_AXIS_NAME-4 "IHS"
*MEAS_COND_AXIS_NAME-5 "DS"
*MEAS_COND_AXIS_NAME-6 "SS"
*MEAS_COND_AXIS_NAME-7 "Soller(rec.)"
*MEAS_COND_AXIS_NAME-8 "RS"
*MEAS_COND_AXIS_NAME-9 "フィルター"
*MEAS_COND_AXIS_NAME-10 "モノクロメータ"
*MEAS_COND_AXIS_NAME-11 "PHA"
*MEAS_COND_AXIS_NAME_INTERNAL-0 "TwoThetaTheta"
*MEAS_COND_AXIS_NAME_INTERNAL-1 "Spin"
*MEAS_COND_AXIS_NAME_INTERNAL-2 "Change"
*MEAS_COND_AXIS_NAME_INTERNAL-3 "IncidentSollerSlit"
*MEAS_COND_AXIS_NAME_INTERNAL-4 "IncidentAxdSlit"
*MEAS_COND_AXIS_NAME_INTERNAL-5 "IncidentSlitBox"
*MEAS_COND_AXIS_NAME_INTERNAL-6 "ReceivingSlitBox1"
*MEAS_COND_AXIS_NAME_INTERNAL-7 "ReceivingSollerSlit"
*MEAS_COND_AXIS_NAME_INTERNAL-8 "ReceivingSlitBox2"
*MEAS_COND_AXIS_NAME_INTERNAL-9 "Filter"
*MEAS_COND_AXIS_NAME_INTERNAL-10 "CounterMonochromator"
*MEAS_COND_AXIS_NAME_INTERNAL-11 "PHA"
*MEAS_COND_AXIS_NAME_MAGICNO-0 "268632064.0000000000"
*MEAS_COND_AXIS_NAME_MAGICNO-1 "16842752.0000000000"
*MEAS_COND_AXIS_NAME_MAGICNO-2 "16842752.0000000000"
*MEAS_COND_AXIS_NAME_MAGICNO-3 "20971521.0000000000"
*MEAS_COND_AXIS_NAME_MAGICNO-4 "22020097.0000000000"
*MEAS_COND_AXIS_NAME_MAGICNO-5 "22020097.0000000000"
*MEAS_COND_AXIS_NAME_MAGICNO-6 "23068673.0000000000"
*MEAS_COND_AXIS_NAME_MAGICNO-7 "20971521.0000000000"
*MEAS_COND_AXIS_NAME_MAGICNO-8 "23068673.0000000000"
*MEAS_COND_AXIS_NAME_MAGICNO-9 "20971521.0000000000"
*MEAS_COND_AXIS_NAME_MAGICNO-10 "20971521.0000000000"
*MEAS_COND_AXIS_NAME_MAGICNO-11 "0.0000000000"
*MEAS_COND_AXIS_OFFSET-0 "0.0000000000"
*MEAS_COND_AXIS_OFFSET-1 "-"
*MEAS_COND_AXIS_OFFSET-2 "-"
*MEAS_COND_AXIS_OFFSET-3 "-"
*MEAS_COND_AXIS_OFFSET-4 "-"
*MEAS_COND_AXIS_OFFSET-5 "-"
*MEAS_COND_AXIS_OFFSET-6 "-"
*MEAS_COND_AXIS_OFFSET-7 "-"
*MEAS_COND_AXIS_OFFSET-8 "-"
*MEAS_COND_AXIS_OFFSET-9 "-"
*MEAS_COND_AXIS_OFFSET-10 "-"
*MEAS_COND_AXIS_OFFSET-11 "-"
*MEAS_COND_AXIS_POSITION-0 "10.0000000000"
*MEAS_COND_AXIS_POSITION-1 "0.0000000000"
*MEAS_COND_AXIS_POSITION-2 "4.0000000000"
*MEAS_COND_AXIS_POSITION-3 "2.5deg"
*MEAS_COND_AXIS_POSITION-4 "10.0mm"
*MEAS_COND_AXIS_POSITION-5 "1.250deg"
*MEAS_COND_AXIS_POSITION-6 "13.0mm(Open)"
*MEAS_COND_AXIS_POSITION-7 "2.5deg"
*MEAS_COND_AXIS_POSITION-8 "13.0mm"
*MEAS_COND_AXIS_POSITION-9 "K-beta(x1)"
*MEAS_COND_AXIS_POSITION-10 "None"
*MEAS_COND_AXIS_POSITION-11 "34.0000000000"
*MEAS_COND_AXIS_UNIT-0 "deg"
*MEAS_COND_AXIS_UNIT-1 ""
*MEAS_COND_AXIS_UNIT-2 ""
*MEAS_COND_AXIS_UNIT-3 ""
*MEAS_COND_AXIS_UNIT-4 ""
*MEAS_COND_AXIS_UNIT-5 ""
*MEAS_COND_AXIS_UNIT-6 ""
*MEAS_COND_AXIS_UNIT-7 ""
*MEAS_COND_AXIS_UNIT-8 ""
*MEAS_COND_AXIS_UNIT-9 ""
*MEAS_COND_AXIS_UNIT-10 ""
*MEAS_COND_AXIS_UNIT-11 "div"
*MEAS_COND_COUNTER_CNTLOSS_CORR "0.0000000000"
*MEAS_COND_COUNTER_PHABASE "34.0000000000"
*MEAS_COND_COUNTER_PHAWINDOW "14.0000000000"
*MEAS_COND_COUNTER_PHA_UNIT "div"
*MEAS_COND_COUNTER_TAUDIFF "0.2500000000"
*MEAS_COND_COUNTER_TAUINT "0.7500000000"
*MEAS_COND_IRRADIATION_MODE "OFF"
*MEAS_COND_IRRADIATION_WIDTH ""
*MEAS_COND_OPT_ATTR " "
*MEAS_COND_OPT_NAME ""
*MEAS_COND_UNSYMMETRIC_MODE "OFF"
*MEAS_COND_XG_CURRENT "15.0000000000"
*MEAS_COND_XG_VOLTAGE "40.0000000000"
*MEAS_COND_XG_WAVE_TYPE "Ka"
*MEAS_DATA_COUNT "5201.0000000000"
*MEAS_SCAN_AXIS_X "2θ/θ"
*MEAS_SCAN_AXIS_X_INTERNAL "TwoThetaTheta"
*MEAS_SCAN_END_TIME "11/24/23 10:37:16"
*MEAS_SCAN_MODE "CONTINUOUS"
*MEAS_SCAN_MONITOR "0"
*MEAS_SCAN_RESOLUTION_X "0.005"
*MEAS_SCAN_SPEED "10.000"
*MEAS_SCAN_SPEED_UNIT "deg/min"
*MEAS_SCAN_SPEED_USER "10.000"
*MEAS_SCAN_START "3.0000000000"
*MEAS_SCAN_START_TIME "11/24/23 10:31:16"
*MEAS_SCAN_STEP "0.0100000000"
*MEAS_SCAN_STOP "55.0000000000"
*MEAS_SCAN_UNIT_X "deg"
*MEAS_SCAN_UNIT_Y "counts"
*SLIT_SYSTEM "0"
*RAS_HEADER_END
*RAS_INT_START
3.000 166.000 1.000
3.010 161.000 1.000
3.020 169.000 1.000
3.030 187.000 1.000
3.040 164.000 1.000
3.050 182.000 1.000
3.060 188.000 1.000
3.070 173.000 1.000
3.080 154.000 1.000
3.090 165.000 1.000
3.100 173.000 1.000
3.110 155.000 1.000
3.120 148.000 1.000
3.130 153.000 1.000
3.140 155.000 1.000
3.150 170.000 1.000
3.160 150.000 1.000
3.170 150.000 1.000
3.180 162.000 1.000
3.190 157.000 1.000
3.200 147.000 1.000
3.210 157.000 1.000
3.220 144.000 1.000
3.230 157.000 1.000
3.240 151.000 1.000
3.250 147.000 1.000
3.260 160.000 1.000
3.270 148.000 1.000
3.280 149.000 1.000
3.290 154.000 1.000
3.300 158.000 1.000
3.310 155.000 1.000
3.320 156.000 1.000
3.330 157.000 1.000
3.340 142.000 1.000
3.350 157.000 1.000
3.360 143.000 1.000
3.370 147.000 1.000
3.380 157.000 1.000
3.390 152.000 1.000
3.400 146.000 1.000
3.410 134.000 1.000
3.420 131.000 1.000
3.430 139.000 1.000
3.440 146.000 1.000
3.450 147.000 1.000
3.460 140.000 1.000
3.470 147.000 1.000
3.480 136.000 1.000
3.490 139.000 1.000
3.500 121.000 1.000
3.510 128.000 1.000
3.520 136.000 1.000
3.530 139.000 1.000
3.540 152.000 1.000
3.550 143.000 1.000
3.560 128.000 1.000
3.570 122.000 1.000
3.580 139.000 1.000
3.590 126.000 1.000
3.600 122.000 1.000
3.610 123.000 1.000
3.620 137.000 1.000
3.630 136.000 1.000
3.640 131.000 1.000
3.650 134.000 1.000
3.660 127.000 1.000
3.670 112.000 1.000
3.680 119.000 1.000
3.690 132.000 1.000
3.700 123.000 1.000
3.710 124.000 1.000
3.720 136.000 1.000
3.730 115.000 1.000
3.740 124.000 1.000
3.750 132.000 1.000
3.760 134.000 1.000
3.770 134.000 1.000
3.780 132.000 1.000
3.790 126.000 1.000
3.800 115.000 1.000
3.810 115.000 1.000
3.820 124.000 1.000
3.830 112.000 1.000
3.840 111.000 1.000
3.850 112.000 1.000
3.860 113.000 1.000
3.870 117.000 1.000
3.880 125.000 1.000
3.890 116.000 1.000
3.900 126.000 1.000
3.910 128.000 1.000
3.920 107.000 1.000
3.930 115.000 1.000
3.940 113.000 1.000
3.950 117.000 1.000
3.960 122.000 1.000
3.970 122.000 1.000
3.980 127.000 1.000
3.990 118.000 1.000
4.000 102.000 1.000
4.010 113.000 1.000
4.020 134.000 1.000
4.030 127.000 1.000
4.040 116.000 1.000
4.050 129.000 1.000
4.060 140.000 1.000
4.070 119.000 1.000
4.080 115.000 1.000
4.090 113.000 1.000
4.100 108.000 1.000
4.110 117.000 1.000
4.120 111.000 1.000
4.130 103.000 1.000
4.140 112.000 1.000
4.150 116.000 1.000
4.160 113.000 1.000
4.170 99.000 1.000
4.180 109.000 1.000
4.190 110.000 1.000
4.200 115.000 1.000
4.210 129.000 1.000
4.220 100.000 1.000
4.230 115.000 1.000
4.240 111.000 1.000
4.250 94.000 1.000
4.260 101.000 1.000
4.270 116.000 1.000
4.280 116.000 1.000
4.290 123.000 1.000
4.300 117.000 1.000
4.310 116.000 1.000
4.320 119.000 1.000
4.330 110.000 1.000
4.340 117.000 1.000
4.350 114.000 1.000
4.360 106.000 1.000
4.370 116.000 1.000
4.380 121.000 1.000
4.390 115.000 1.000
4.400 129.000 1.000
4.410 121.000 1.000
4.420 121.000 1.000
4.430 102.000 1.000
4.440 105.000 1.000
4.450 101.000 1.000
4.460 94.000 1.000
4.470 99.000 1.000
4.480 102.000 1.000
4.490 102.000 1.000
4.500 112.000 1.000
4.510 111.000 1.000
4.520 107.000 1.000
4.530 127.000 1.000
4.540 120.000 1.000
4.550 102.000 1.000
4.560 115.000 1.000
4.570 105.000 1.000
4.580 95.000 1.000
4.590 106.000 1.000
4.600 102.000 1.000
4.610 106.000 1.000
4.620 106.000 1.000
4.630 111.000 1.000
4.640 111.000 1.000
4.650 110.000 1.000
4.660 119.000 1.000
4.670 112.000 1.000
4.680 98.000 1.000
4.690 102.000 1.000
4.700 100.000 1.000
4.710 101.000 1.000
4.720 103.000 1.000
4.730 112.000 1.000
4.740 110.000 1.000
4.750 97.000 1.000
4.760 94.000 1.000
4.770 103.000 1.000
4.780 113.000 1.000
4.790 121.000 1.000
4.800 119.000 1.000
4.810 113.000 1.000
4.820 108.000 1.000
4.830 105.000 1.000
4.840 110.000 1.000
4.850 111.000 1.000
4.860 109.000 1.000
4.870 106.000 1.000
4.880 110.000 1.000
4.890 115.000 1.000
4.900 99.000 1.000
4.910 117.000 1.000
4.920 128.000 1.000
4.930 120.000 1.000
4.940 118.000 1.000
4.950 117.000 1.000
4.960 105.000 1.000
4.970 107.000 1.000
4.980 138.000 1.000
4.990 144.000 1.000
5.000 129.000 1.000
5.010 131.000 1.000
5.020 131.000 1.000
5.030 140.000 1.000
5.040 139.000 1.000
5.050 147.000 1.000
5.060 143.000 1.000
5.070 151.000 1.000
5.080 137.000 1.000
5.090 148.000 1.000
5.100 132.000 1.000
5.110 148.000 1.000
5.120 169.000 1.000
5.130 171.000 1.000
5.140 160.000 1.000
5.150 139.000 1.000
5.160 143.000 1.000
5.170 145.000 1.000
5.180 146.000 1.000
5.190 147.000 1.000
5.200 141.000 1.000
5.210 140.000 1.000
5.220 137.000 1.000
5.230 141.000 1.000
5.240 138.000 1.000
5.250 145.000 1.000
5.260 146.000 1.000
5.270 128.000 1.000
5.280 116.000 1.000
5.290 119.000 1.000
5.300 108.000 1.000
5.310 107.000 1.000
5.320 116.000 1.000
5.330 113.000 1.000
5.340 113.000 1.000
5.350 94.000 1.000
5.360 98.000 1.000
5.370 104.000 1.000
5.380 114.000 1.000
5.390 101.000 1.000
5.400 99.000 1.000
5.410 109.000 1.000
5.420 100.000 1.000
5.430 94.000 1.000
5.440 93.000 1.000
5.450 92.000 1.000
5.460 101.000 1.000
5.470 109.000 1.000
5.480 111.000 1.000
5.490 100.000 1.000
5.500 109.000 1.000
5.510 106.000 1.000
5.520 98.000 1.000
5.530 102.000 1.000
5.540 98.000 1.000
5.550 106.000 1.000
5.560 96.000 1.000
5.570 83.000 1.000
5.580 105.000 1.000
5.590 99.000 1.000
5.600 96.000 1.000
5.610 92.000 1.000
5.620 100.000 1.000
5.630 95.000 1.000
5.640 98.000 1.000
5.650 85.000 1.000
5.660 83.000 1.000
5.670 97.000 1.000
5.680 88.000 1.000
5.690 102.000 1.000
5.700 96.000 1.000
5.710 84.000 1.000
5.720 90.000 1.000
5.730 103.000 1.000
5.740 100.000 1.000
5.750 91.000 1.000
5.760 95.000 1.000
5.770 93.000 1.000
5.780 91.000 1.000
5.790 79.000 1.000
5.800 90.000 1.000
5.810 106.000 1.000
5.820 94.000 1.000
5.830 88.000 1.000
5.840 94.000 1.000
5.850 96.000 1.000
5.860 91.000 1.000
5.870 100.000 1.000
5.880 93.000 1.000
5.890 98.000 1.000
5.900 87.000 1.000
5.910 96.000 1.000
5.920 105.000 1.000
5.930 107.000 1.000
5.940 88.000 1.000
5.950 94.000 1.000
5.960 97.000 1.000
5.970 85.000 1.000
5.980 87.000 1.000
5.990 79.000 1.000
6.000 90.000 1.000
6.010 98.000 1.000
6.020 91.000 1.000
6.030 85.000 1.000
6.040 106.000 1.000
6.050 99.000 1.000
6.060 103.000 1.000
6.070 104.000 1.000
6.080 95.000 1.000
6.090 99.000 1.000
6.100 92.000 1.000
6.110 91.000 1.000
6.120 95.000 1.000
6.130 94.000 1.000
6.140 95.000 1.000
6.150 90.000 1.000
6.160 89.000 1.000
6.170 90.000 1.000
6.180 94.000 1.000
6.190 96.000 1.000
6.200 89.000 1.000
6.210 95.000 1.000
6.220 112.000 1.000
6.230 107.000 1.000
6.240 100.000 1.000
6.250 102.000 1.000
6.260 90.000 1.000
6.270 92.000 1.000
6.280 100.000 1.000
6.290 96.000 1.000
6.300 101.000 1.000
6.310 96.000 1.000
6.320 100.000 1.000
6.330 85.000 1.000
6.340 88.000 1.000
6.350 91.000 1.000
6.360 81.000 1.000
6.370 88.000 1.000
6.380 91.000 1.000
6.390 79.000 1.000
6.400 96.000 1.000
6.410 101.000 1.000
6.420 87.000 1.000
6.430 82.000 1.000
6.440 89.000 1.000
6.450 86.000 1.000
6.460 92.000 1.000
6.470 96.000 1.000
6.480 85.000 1.000
6.490 94.000 1.000
6.500 98.000 1.000
6.510 80.000 1.000
6.520 81.000 1.000
6.530 94.000 1.000
6.540 93.000 1.000
6.550 109.000 1.000
6.560 94.000 1.000
6.570 82.000 1.000
6.580 102.000 1.000
6.590 100.000 1.000
6.600 98.000 1.000
6.610 97.000 1.000
6.620 101.000 1.000
6.630 105.000 1.000
6.640 88.000 1.000
6.650 98.000 1.000
6.660 101.000 1.000
6.670 105.000 1.000
6.680 103.000 1.000
6.690 112.000 1.000
6.700 101.000 1.000
6.710 81.000 1.000
6.720 90.000 1.000
6.730 100.000 1.000
6.740 108.000 1.000
6.750 92.000 1.000
6.760 93.000 1.000
6.770 91.000 1.000
6.780 93.000 1.000
6.790 100.000 1.000
6.800 91.000 1.000
6.810 88.000 1.000
6.820 88.000 1.000
6.830 89.000 1.000
6.840 98.000 1.000
6.850 100.000 1.000
6.860 99.000 1.000
6.870 86.000 1.000
6.880 85.000 1.000
6.890 83.000 1.000
6.900 98.000 1.000
6.910 97.000 1.000
6.920 85.000 1.000
6.930 84.000 1.000
6.940 90.000 1.000
6.950 94.000 1.000
6.960 95.000 1.000
6.970 109.000 1.000
6.980 103.000 1.000
6.990 97.000 1.000
7.000 101.000 1.000
7.010 105.000 1.000
7.020 92.000 1.000
7.030 98.000 1.000
7.040 97.000 1.000
7.050 83.000 1.000
7.060 99.000 1.000
7.070 91.000 1.000
7.080 90.000 1.000
7.090 108.000 1.000
7.100 111.000 1.000
7.110 101.000 1.000
7.120 95.000 1.000
7.130 111.000 1.000
7.140 136.000 1.000
7.150 113.000 1.000
7.160 99.000 1.000
7.170 104.000 1.000
7.180 107.000 1.000
7.190 114.000 1.000
7.200 111.000 1.000
7.210 103.000 1.000
7.220 105.000 1.000
7.230 103.000 1.000
7.240 109.000 1.000
7.250 114.000 1.000
7.260 108.000 1.000
7.270 98.000 1.000
7.280 102.000 1.000
7.290 105.000 1.000
7.300 103.000 1.000
7.310 100.000 1.000
7.320 106.000 1.000
7.330 98.000 1.000
7.340 98.000 1.000
7.350 96.000 1.000
7.360 91.000 1.000
7.370 101.000 1.000
7.380 108.000 1.000
7.390 109.000 1.000
7.400 100.000 1.000
7.410 102.000 1.000
7.420 107.000 1.000
7.430 109.000 1.000
7.440 113.000 1.000
7.450 107.000 1.000
7.460 102.000 1.000
7.470 113.000 1.000
7.480 114.000 1.000
7.490 108.000 1.000
7.500 107.000 1.000
7.510 111.000 1.000
7.520 103.000 1.000
7.530 111.000 1.000
7.540 112.000 1.000
7.550 118.000 1.000
7.560 108.000 1.000
7.570 110.000 1.000
7.580 109.000 1.000
7.590 110.000 1.000
7.600 112.000 1.000
7.610 117.000 1.000
7.620 117.000 1.000
7.630 117.000 1.000
7.640 115.000 1.000
7.650 127.000 1.000
7.660 124.000 1.000
7.670 116.000 1.000
7.680 119.000 1.000
7.690 134.000 1.000
7.700 138.000 1.000
7.710 143.000 1.000
7.720 128.000 1.000
7.730 135.000 1.000
7.740 148.000 1.000
7.750 159.000 1.000
7.760 157.000 1.000
7.770 186.000 1.000
7.780 192.000 1.000
7.790 204.000 1.000
7.800 199.000 1.000
7.810 226.000 1.000
7.820 229.000 1.000
7.830 247.000 1.000
7.840 278.000 1.000
7.850 313.000 1.000
7.860 320.000 1.000
7.870 339.000 1.000
7.880 359.000 1.000
7.890 387.000 1.000
7.900 432.000 1.000
7.910 439.000 1.000
7.920 434.000 1.000
7.930 457.000 1.000
7.940 463.000 1.000
7.950 408.000 1.000
7.960 420.000 1.000
7.970 418.000 1.000
7.980 452.000 1.000
7.990 395.000 1.000
8.000 356.000 1.000
8.010 339.000 1.000
8.020 315.000 1.000
8.030 264.000 1.000
8.040 258.000 1.000
8.050 263.000 1.000
8.060 259.000 1.000
8.070 246.000 1.000
8.080 209.000 1.000
8.090 212.000 1.000
8.100 192.000 1.000
8.110 194.000 1.000
8.120 193.000 1.000
8.130 204.000 1.000
8.140 180.000 1.000
8.150 178.000 1.000
8.160 182.000 1.000
8.170 179.000 1.000
8.180 167.000 1.000
8.190 163.000 1.000
8.200 154.000 1.000
8.210 170.000 1.000
8.220 161.000 1.000
8.230 164.000 1.000
8.240 162.000 1.000
8.250 153.000 1.000
8.260 165.000 1.000
8.270 163.000 1.000
8.280 154.000 1.000
8.290 151.000 1.000
8.300 162.000 1.000
8.310 156.000 1.000
8.320 149.000 1.000
8.330 161.000 1.000
8.340 156.000 1.000
8.350 152.000 1.000
8.360 137.000 1.000
8.370 122.000 1.000
8.380 139.000 1.000
8.390 142.000 1.000
8.400 140.000 1.000
8.410 145.000 1.000
8.420 154.000 1.000
8.430 139.000 1.000
8.440 141.000 1.000
8.450 147.000 1.000
8.460 133.000 1.000
8.470 130.000 1.000
8.480 128.000 1.000
8.490 139.000 1.000
8.500 142.000 1.000
8.510 141.000 1.000
