*RAS_DATA_START
*RAS_HEADER_START
*CORR_POS_DB_NAME "Sample"
*CORR_POS_GONIO_RADIUS ""
*CORR_POS_NODE_INDEX01 ""
*CORR_POS_NODE_INDEX02 ""
*CORR_POS_NODE_INDEX03 ""
*CORR_POS_NODE_INDEX04 ""
*CORR_POS_NODE_INDEX05 ""
*CORR_POS_NODE_INDEX06 ""
*CORR_POS_NODE_INDEX07 ""
*CORR_POS_NODE_INDEX08 ""
*CORR_POS_NODE_INDEX09 ""
*CORR_POS_NODE_INDEX10 ""
*CORR_POS_NODE_INDEX11 ""
*CORR_POS_NODE_LABEL01 "Si(111)"
*CORR_POS_NODE_LABEL02 "Si(220)"
*CORR_POS_NODE_LABEL03 "Si(311)"
*CORR_POS_NODE_LABEL04 "Si(400)"
*CORR_POS_NODE_LABEL05 "Si(331)"
*CORR_POS_NODE_LABEL06 "Si(422)"
*CORR_POS_NODE_LABEL07 "Si(511)"
*CORR_POS_NODE_LABEL08 "Si(440)"
*CORR_POS_NODE_LABEL09 "Si(531)"
*CORR_POS_NODE_LABEL10 "Si(620)"
*CORR_POS_NODE_LABEL11 "Si(533)"
*CORR_POS_NODE_POS_CALC01 "28.377"
*CORR_POS_NODE_POS_CALC02 "47.2506"
*CORR_POS_NODE_POS_CALC03 "56.0725"
*CORR_POS_NODE_POS_CALC04 "69.0822"
*CORR_POS_NODE_POS_CALC05 "76.3294"
*CORR_POS_NODE_POS_CALC06 "87.9853"
*CORR_POS_NODE_POS_CALC07 "94.9091"
*CORR_POS_NODE_POS_CALC08 "106.668"
*CORR_POS_NODE_POS_CALC09 "114.054"
*CORR_POS_NODE_POS_CALC10 "127.511"
*CORR_POS_NODE_POS_CALC11 "136.864"
*CORR_POS_NODE_POS_MEAS01 "28.377"
*CORR_POS_NODE_POS_MEAS02 "47.2506"
*CORR_POS_NODE_POS_MEAS03 "56.0725"
*CORR_POS_NODE_POS_MEAS04 "69.0822"
*CORR_POS_NODE_POS_MEAS05 "76.3294"
*CORR_POS_NODE_POS_MEAS06 "87.9853"
*CORR_POS_NODE_POS_MEAS07 "94.9091"
*CORR_POS_NODE_POS_MEAS08 "106.668"
*CORR_POS_NODE_POS_MEAS09 "114.054"
*CORR_POS_NODE_POS_MEAS10 "127.511"
*CORR_POS_NODE_POS_MEAS11 "136.864"
*CORR_POS_OPT_ATTR "集中法"
*CORR_POS_PARAM_MU ""
*CORR_POS_PARAM_PL ""
*CORR_POS_SEMODEL_TYPE "0"
*CORR_POS_STANDARD_TYPE ""
*CORR_POS_VALUE_ANALYZER "None"
*CORR_POS_VALUE_CMONO "None"
*CORR_POS_VALUE_IMONO "None"
*CORR_POS_VALUE_IS "1.250deg"
*CORR_POS_VALUE_ISL "10.0mm"
*CORR_POS_VALUE_ISOLLER "5.0deg"
*CORR_POS_VALUE_RS1 "1.250deg"
*CORR_POS_VALUE_RS2 "0.3mm"
*CORR_POS_VALUE_RSOLLER "5.0deg"
*CORR_POS_XG_FOCUS_L ""
*CORR_POS_XG_WAVE_TYPE ""
*CORR_POS_XG_WAVE_VALUE ""
*DISP_FMT_X "%.2f"
*DISP_FMT_Y "%.0f"
*DISP_FULLSCALE "223520.0000000000"
*DISP_LINE_COLOR "255.0000000000"
*DISP_LINE_STYLE "0.0000000000"
*DISP_LINE_WIDTH "0.2500000000"
*DISP_NOTE "測定データ-1"
*DISP_OFFSET_Y "0.0000000000"
*DISP_PEAKSEARCH_UNIT_Y "CPS"
*DISP_RANGE_BOTTOM "0.0000000000"
*DISP_RANGE_LEFT "3.0000000000"
*DISP_RANGE_LOGCUTOFF "0.0100000000"
*DISP_RANGE_RIGHT "55.0000000000"
*DISP_RANGE_TOP "223520.0000000000"
*DISP_SCALE_MODE_Y "0.0000000000"
*DISP_TAB_NAME "2θ/θ"
*DISP_TITLE_Y "強度"
*DISP_UNIT_Y "CPS"
*DISP_WINDOW_NAME "MSG_MACROENGINE"
*FILE_COMMENT " "
*FILE_MD5 ""
*FILE_MEMO " "
*FILE_OPERATOR "Administrator"
*FILE_PART_ID "MEAS_PBEA_00223"
*FILE_SAMPLE " "
*FILE_TYPE "RAS_RAW"
*FILE_USERGROUP "システムマネージャ"
*FILE_VERSION "1.0000000000"
*HW_ATTACHMENT_ID "ATT1031"
*HW_ATTACHMENT_NAME "6サンプルチェンジャ|ASC-6"
*HW_COUNTER_ID-0 "CUT0025"
*HW_COUNTER_ID-1 "CUT0020"
*HW_COUNTER_ID-2 "CUT0020"
*HW_COUNTER_ID-3 "CMC0021"
*HW_COUNTER_NAME-0 "D/teX Ultra|D/teX Ultra"
*HW_COUNTER_NAME-1 "None|None"
*HW_COUNTER_NAME-2 "None|None"
*HW_COUNTER_NAME-3 "検出器モノクロメータ|Detector monochromator"
*HW_COUNTER_SELECT_NAME "D/teX Ultra|D/teX Ultra"
*HW_GONIOMETER_ID "GON0070"
*HW_GONIOMETER_NAME "MiniFlex 300/600|MiniFlex 300/600"
*HW_GONIOMETER_RADIUS-0 "79.0"
*HW_GONIOMETER_RADIUS-1 "91.5"
*HW_GONIOMETER_RADIUS-2 "150.0"
*HW_GONIOMETER_RADIUS-3 "0"
*HW_GONIOMETER_RADIUS-4 "103.4"
*HW_GONIOMETER_RADIUS-5 "150.0"
*HW_GONIOMETER_RADIUS-6 "46.6"
*HW_GONIOMETER_RADIUS-7 "160.0"
*HW_I_OPT_ID-0 "ISL0021"
*HW_I_OPT_ID-1 "ISO0021"
*HW_I_OPT_NAME-0 "発散スリット|Divergence slit"
*HW_I_OPT_NAME-1 "入射平行スリット|Incident parallel slit"
*HW_R_ATTENUATER_AUTOMODE "0"
*HW_R_OPT_ID-0 "RSS0021"
*HW_R_OPT_ID-1 "RSO0021"
*HW_R_OPT_ID-2 "RRS0021"
*HW_R_OPT_NAME-0 "散乱スリット|Scattering slit"
*HW_R_OPT_NAME-1 "受光平行スリット|Receiving soller slit"
*HW_R_OPT_NAME-2 "受光スリット|Receiving slit"
*HW_SAMPLE_HOLDER_ID "SMP0000"
*HW_SAMPLE_HOLDER_NAME "無し|None"
*HW_XG_CURRENT_MAX "15"
*HW_XG_CURRENT_MIN "2"
*HW_XG_CURRENT_RESOLUTION "1"
*HW_XG_CURRENT_UNIT "mA"
*HW_XG_FOCUS "1mm x 10mm"
*HW_XG_FOCUS_TYPE "Normal"
*HW_XG_ID "1060"
*HW_XG_NAME "300W/600W 封入管-B|300W/600W Sealed tube-B"
*HW_XG_TARGET_ATOMIC_NUMBER "29.0000000000"
*HW_XG_TARGET_NAME "Cu"
*HW_XG_TYPE "Hermetic"
*HW_XG_VOLTAGE_MAX "40"
*HW_XG_VOLTAGE_MIN "20"
*HW_XG_VOLTAGE_RESOLUTION "1"
*HW_XG_VOLTAGE_UNIT "kV"
*HW_XG_WATT_MAX "1"
*HW_XG_WATT_UNIT "kW"
*HW_XG_WAVE_LENGTH_ALPHA1 "1.540593"
*HW_XG_WAVE_LENGTH_ALPHA2 "1.544414"
*HW_XG_WAVE_LENGTH_BETA "1.392250"
*MEAS_COND_AXIS_NAME-0 "2θ/θ"
*MEAS_COND_AXIS_NAME-1 "試料回転"
*MEAS_COND_AXIS_NAME-2 "試料交換"
*MEAS_COND_AXIS_NAME-3 "Soller(inc.)"
*MEAS_COND_AXIS_NAME-4 "IHS"
*MEAS_COND_AXIS_NAME-5 "DS"
*MEAS_COND_AXIS_NAME-6 "SS"
*MEAS_COND_AXIS_NAME-7 "Soller(rec.)"
*MEAS_COND_AXIS_NAME-8 "RS"
*MEAS_COND_AXIS_NAME-9 "フィルター"
*MEAS_COND_AXIS_NAME-10 "モノクロメータ"
*MEAS_COND_AXIS_NAME-11 "PHA"
*MEAS_COND_AXIS_NAME_INTERNAL-0 "TwoThetaTheta"
*MEAS_COND_AXIS_NAME_INTERNAL-1 "Spin"
*MEAS_COND_AXIS_NAME_INTERNAL-2 "Change"
*MEAS_COND_AXIS_NAME_INTERNAL-3 "IncidentSollerSlit"
*MEAS_COND_AXIS_NAME_INTERNAL-4 "IncidentAxdSlit"
*MEAS_COND_AXIS_NAME_INTERNAL-5 "IncidentSlitBox"
*MEAS_COND_AXIS_NAME_INTERNAL-6 "ReceivingSlitBox1"
*MEAS_COND_AXIS_NAME_INTERNAL-7 "ReceivingSollerSlit"
*MEAS_COND_AXIS_NAME_INTERNAL-8 "ReceivingSlitBox2"
*MEAS_COND_AXIS_NAME_INTERNAL-9 "Filter"
*MEAS_COND_AXIS_NAME_INTERNAL-10 "CounterMonochromator"
*MEAS_COND_AXIS_NAME_INTERNAL-11 "PHA"
*MEAS_COND_AXIS_NAME_MAGICNO-0 "268632064.0000000000"
*MEAS_COND_AXIS_NAME_MAGICNO-1 "16842752.0000000000"
*MEAS_COND_AXIS_NAME_MAGICNO-2 "16842752.0000000000"
*MEAS_COND_AXIS_NAME_MAGICNO-3 "20971521.0000000000"
*MEAS_COND_AXIS_NAME_MAGICNO-4 "22020097.0000000000"
*MEAS_COND_AXIS_NAME_MAGICNO-5 "22020097.0000000000"
*MEAS_COND_AXIS_NAME_MAGICNO-6 "23068673.0000000000"
*MEAS_COND_AXIS_NAME_MAGICNO-7 "20971521.0000000000"
*MEAS_COND_AXIS_NAME_MAGICNO-8 "23068673.0000000000"
*MEAS_COND_AXIS_NAME_MAGICNO-9 "20971521.0000000000"
*MEAS_COND_AXIS_NAME_MAGICNO-10 "20971521.0000000000"
*MEAS_COND_AXIS_NAME_MAGICNO-11 "0.0000000000"
*MEAS_COND_AXIS_OFFSET-0 "0.0000000000"
*MEAS_COND_AXIS_OFFSET-1 "-"
*MEAS_COND_AXIS_OFFSET-2 "-"
*MEAS_COND_AXIS_OFFSET-3 "-"
*MEAS_COND_AXIS_OFFSET-4 "-"
*MEAS_COND_AXIS_OFFSET-5 "-"
*MEAS_COND_AXIS_OFFSET-6 "-"
*MEAS_COND_AXIS_OFFSET-7 "-"
*MEAS_COND_AXIS_OFFSET-8 "-"
*MEAS_COND_AXIS_OFFSET-9 "-"
*MEAS_COND_AXIS_OFFSET-10 "-"
*MEAS_COND_AXIS_OFFSET-11 "-"
*MEAS_COND_AXIS_POSITION-0 "10.0000000000"
*MEAS_COND_AXIS_POSITION-1 "0.0000000000"
*MEAS_COND_AXIS_POSITION-2 "4.0000000000"
*MEAS_COND_AXIS_POSITION-3 "2.5deg"
*MEAS_COND_AXIS_POSITION-4 "10.0mm"
*MEAS_COND_AXIS_POSITION-5 "1.250deg"
*MEAS_COND_AXIS_POSITION-6 "13.0mm(Open)"
*MEAS_COND_AXIS_POSITION-7 "2.5deg"
*MEAS_COND_AXIS_POSITION-8 "13.0mm"
*MEAS_COND_AXIS_POSITION-9 "K-beta(x1)"
*MEAS_COND_AXIS_POSITION-10 "None"
*MEAS_COND_AXIS_POSITION-11 "34.0000000000"
*MEAS_COND_AXIS_UNIT-0 "deg"
*MEAS_COND_AXIS_UNIT-1 ""
*MEAS_COND_AXIS_UNIT-2 ""
*MEAS_COND_AXIS_UNIT-3 ""
*MEAS_COND_AXIS_UNIT-4 ""
*MEAS_COND_AXIS_UNIT-5 ""
*MEAS_COND_AXIS_UNIT-6 ""
*MEAS_COND_AXIS_UNIT-7 ""
*MEAS_COND_AXIS_UNIT-8 ""
*MEAS_COND_AXIS_UNIT-9 ""
*MEAS_COND_AXIS_UNIT-10 ""
*MEAS_COND_AXIS_UNIT-11 "div"
*MEAS_COND_COUNTER_CNTLOSS_CORR "0.0000000000"
*MEAS_COND_COUNTER_PHABASE "34.0000000000"
*MEAS_COND_COUNTER_PHAWINDOW "14.0000000000"
*MEAS_COND_COUNTER_PHA_UNIT "div"
*MEAS_COND_COUNTER_TAUDIFF "0.2500000000"
*MEAS_COND_COUNTER_TAUINT "0.7500000000"
*MEAS_COND_IRRADIATION_MODE "OFF"
*MEAS_COND_IRRADIATION_WIDTH ""
*MEAS_COND_OPT_ATTR " "
*MEAS_COND_OPT_NAME ""
*MEAS_COND_UNSYMMETRIC_MODE "OFF"
*MEAS_COND_XG_CURRENT "15.0000000000"
*MEAS_COND_XG_VOLTAGE "40.0000000000"
*MEAS_COND_XG_WAVE_TYPE "Ka"
*MEAS_DATA_COUNT "5201.0000000000"
*MEAS_SCAN_AXIS_X "2θ/θ"
*MEAS_SCAN_AXIS_X_INTERNAL "TwoThetaTheta"
*MEAS_SCAN_END_TIME "11/24/23 13:30:34"
*MEAS_SCAN_MODE "CONTINUOUS"
*MEAS_SCAN_MONITOR "0"
*MEAS_SCAN_RESOLUTION_X "0.005"
*MEAS_SCAN_SPEED "10.000"
*MEAS_SCAN_SPEED_UNIT "deg/min"
*MEAS_SCAN_SPEED_USER "10.000"
*MEAS_SCAN_START "3.0000000000"
*MEAS_SCAN_START_TIME "11/24/23 13:24:36"
*MEAS_SCAN_STEP "0.0100000000"
*MEAS_SCAN_STOP "55.0000000000"
*MEAS_SCAN_UNIT_X "deg"
*MEAS_SCAN_UNIT_Y "counts"
*SLIT_SYSTEM "0"
*RAS_HEADER_END
*RAS_INT_START
3.000 476.000 1.000
3.010 466.000 1.000
3.020 436.000 1.000
3.030 448.000 1.000
3.040 451.000 1.000
3.050 439.000 1.000
3.060 442.000 1.000
3.070 444.000 1.000
3.080 445.000 1.000
3.090 444.000 1.000
3.100 477.000 1.000
3.110 455.000 1.000
3.120 434.000 1.000
3.130 450.000 1.000
3.140 453.000 1.000
3.150 421.000 1.000
3.160 441.000 1.000
3.170 460.000 1.000
3.180 433.000 1.000
3.190 407.000 1.000
3.200 448.000 1.000
3.210 451.000 1.000
3.220 430.000 1.000
3.230 442.000 1.000
3.240 421.000 1.000
3.250 414.000 1.000
3.260 445.000 1.000
3.270 452.000 1.000
3.280 449.000 1.000
3.290 440.000 1.000
3.300 429.000 1.000
3.310 428.000 1.000
3.320 437.000 1.000
3.330 413.000 1.000
3.340 424.000 1.000
3.350 424.000 1.000
3.360 427.000 1.000
3.370 404.000 1.000
3.380 437.000 1.000
3.390 465.000 1.000
3.400 445.000 1.000
3.410 435.000 1.000
3.420 436.000 1.000
3.430 435.000 1.000
3.440 445.000 1.000
3.450 450.000 1.000
3.460 452.000 1.000
3.470 473.000 1.000
3.480 467.000 1.000
3.490 448.000 1.000
3.500 442.000 1.000
3.510 441.000 1.000
3.520 439.000 1.000
3.530 477.000 1.000
3.540 466.000 1.000
3.550 452.000 1.000
3.560 448.000 1.000
3.570 446.000 1.000
3.580 438.000 1.000
3.590 440.000 1.000
3.600 446.000 1.000
3.610 443.000 1.000
3.620 448.000 1.000
3.630 458.000 1.000
3.640 448.000 1.000
3.650 407.000 1.000
3.660 411.000 1.000
3.670 463.000 1.000
3.680 452.000 1.000
3.690 422.000 1.000
3.700 441.000 1.000
3.710 438.000 1.000
3.720 444.000 1.000
3.730 452.000 1.000
3.740 462.000 1.000
3.750 448.000 1.000
3.760 458.000 1.000
3.770 436.000 1.000
3.780 459.000 1.000
3.790 452.000 1.000
3.800 432.000 1.000
3.810 458.000 1.000
3.820 457.000 1.000
3.830 443.000 1.000
3.840 431.000 1.000
3.850 441.000 1.000
3.860 477.000 1.000
3.870 481.000 1.000
3.880 457.000 1.000
3.890 441.000 1.000
3.900 455.000 1.000
3.910 456.000 1.000
3.920 479.000 1.000
3.930 440.000 1.000
3.940 431.000 1.000
3.950 444.000 1.000
3.960 460.000 1.000
3.970 459.000 1.000
3.980 442.000 1.000
3.990 448.000 1.000
4.000 441.000 1.000
4.010 450.000 1.000
4.020 464.000 1.000
4.030 490.000 1.000
4.040 465.000 1.000
4.050 443.000 1.000
4.060 449.000 1.000
4.070 464.000 1.000
4.080 440.000 1.000
4.090 447.000 1.000
4.100 433.000 1.000
4.110 440.000 1.000
4.120 479.000 1.000
4.130 446.000 1.000
4.140 442.000 1.000
4.150 442.000 1.000
4.160 436.000 1.000
4.170 459.000 1.000
4.180 456.000 1.000
4.190 438.000 1.000
4.200 445.000 1.000
4.210 431.000 1.000
4.220 421.000 1.000
4.230 423.000 1.000
4.240 416.000 1.000
4.250 425.000 1.000
4.260 447.000 1.000
4.270 449.000 1.000
4.280 440.000 1.000
4.290 425.000 1.000
4.300 408.000 1.000
4.310 405.000 1.000
4.320 426.000 1.000
4.330 431.000 1.000
4.340 414.000 1.000
4.350 427.000 1.000
4.360 430.000 1.000
4.370 400.000 1.000
4.380 417.000 1.000
4.390 430.000 1.000
4.400 391.000 1.000
4.410 382.000 1.000
4.420 392.000 1.000
4.430 416.000 1.000
4.440 371.000 1.000
4.450 353.000 1.000
4.460 372.000 1.000
4.470 369.000 1.000
4.480 355.000 1.000
4.490 370.000 1.000
4.500 387.000 1.000
4.510 385.000 1.000
4.520 361.000 1.000
4.530 343.000 1.000
4.540 349.000 1.000
4.550 346.000 1.000
4.560 342.000 1.000
4.570 342.000 1.000
4.580 341.000 1.000
4.590 339.000 1.000
4.600 345.000 1.000
4.610 356.000 1.000
4.620 360.000 1.000
4.630 354.000 1.000
4.640 350.000 1.000
4.650 366.000 1.000
4.660 360.000 1.000
4.670 370.000 1.000
4.680 339.000 1.000
4.690 328.000 1.000
4.700 324.000 1.000
4.710 336.000 1.000
4.720 313.000 1.000
4.730 306.000 1.000
4.740 305.000 1.000
4.750 316.000 1.000
4.760 311.000 1.000
4.770 297.000 1.000
4.780 297.000 1.000
4.790 327.000 1.000
4.800 358.000 1.000
4.810 358.000 1.000
4.820 328.000 1.000
4.830 329.000 1.000
4.840 333.000 1.000
4.850 309.000 1.000
4.860 331.000 1.000
4.870 342.000 1.000
4.880 355.000 1.000
4.890 331.000 1.000
4.900 308.000 1.000
4.910 327.000 1.000
4.920 343.000 1.000
4.930 332.000 1.000
4.940 328.000 1.000
4.950 327.000 1.000
4.960 305.000 1.000
4.970 327.000 1.000
4.980 318.000 1.000
4.990 318.000 1.000
5.000 316.000 1.000
5.010 321.000 1.000
5.020 335.000 1.000
5.030 329.000 1.000
5.040 321.000 1.000
5.050 327.000 1.000
5.060 309.000 1.000
5.070 317.000 1.000
5.080 311.000 1.000
5.090 304.000 1.000
5.100 323.000 1.000
5.110 322.000 1.000
5.120 335.000 1.000
5.130 333.000 1.000
5.140 334.000 1.000
5.150 334.000 1.000
5.160 326.000 1.000
5.170 326.000 1.000
5.180 310.000 1.000
5.190 296.000 1.000
5.200 320.000 1.000
5.210 336.000 1.000
5.220 326.000 1.000
5.230 320.000 1.000
5.240 302.000 1.000
5.250 325.000 1.000
5.260 338.000 1.000
5.270 353.000 1.000
5.280 353.000 1.000
5.290 348.000 1.000
5.300 339.000 1.000
5.310 341.000 1.000
5.320 355.000 1.000
5.330 368.000 1.000
5.340 360.000 1.000
5.350 353.000 1.000
5.360 345.000 1.000
5.370 362.000 1.000
5.380 383.000 1.000
5.390 338.000 1.000
5.400 341.000 1.000
5.410 370.000 1.000
5.420 372.000 1.000
5.430 343.000 1.000
5.440 355.000 1.000
5.450 330.000 1.000
5.460 337.000 1.000
5.470 349.000 1.000
5.480 309.000 1.000
5.490 331.000 1.000
5.500 318.000 1.000
5.510 304.000 1.000
5.520 295.000 1.000
5.530 326.000 1.000
5.540 334.000 1.000
5.550 319.000 1.000
5.560 325.000 1.000
5.570 322.000 1.000
5.580 307.000 1.000
5.590 315.000 1.000
5.600 324.000 1.000
5.610 306.000 1.000
5.620 321.000 1.000
5.630 338.000 1.000
5.640 324.000 1.000
5.650 302.000 1.000
5.660 295.000 1.000
5.670 315.000 1.000
5.680 309.000 1.000
5.690 288.000 1.000
5.700 289.000 1.000
5.710 307.000 1.000
5.720 302.000 1.000
5.730 301.000 1.000
5.740 305.000 1.000
5.750 300.000 1.000
5.760 301.000 1.000
5.770 313.000 1.000
5.780 308.000 1.000
5.790 311.000 1.000
5.800 307.000 1.000
5.810 307.000 1.000
5.820 297.000 1.000
5.830 292.000 1.000
5.840 303.000 1.000
5.850 287.000 1.000
5.860 302.000 1.000
5.870 312.000 1.000
5.880 304.000 1.000
5.890 308.000 1.000
5.900 301.000 1.000
5.910 330.000 1.000
5.920 284.000 1.000
5.930 292.000 1.000
5.940 282.000 1.000
5.950 281.000 1.000
5.960 295.000 1.000
5.970 304.000 1.000
5.980 314.000 1.000
5.990 308.000 1.000
6.000 301.000 1.000
6.010 308.000 1.000
6.020 312.000 1.000
6.030 311.000 1.000
6.040 293.000 1.000
6.050 294.000 1.000
6.060 285.000 1.000
6.070 293.000 1.000
6.080 290.000 1.000
6.090 305.000 1.000
6.100 313.000 1.000
6.110 315.000 1.000
6.120 331.000 1.000
6.130 301.000 1.000
6.140 301.000 1.000
6.150 296.000 1.000
6.160 311.000 1.000
6.170 316.000 1.000
6.180 318.000 1.000
6.190 298.000 1.000
6.200 298.000 1.000
6.210 290.000 1.000
6.220 282.000 1.000
6.230 304.000 1.000
6.240 299.000 1.000
6.250 298.000 1.000
6.260 289.000 1.000
6.270 303.000 1.000
6.280 306.000 1.000
6.290 303.000 1.000
6.300 308.000 1.000
6.310 290.000 1.000
6.320 296.000 1.000
6.330 301.000 1.000
6.340 301.000 1.000
6.350 302.000 1.000
6.360 303.000 1.000
6.370 306.000 1.000
6.380 317.000 1.000
6.390 309.000 1.000
6.400 288.000 1.000
6.410 299.000 1.000
6.420 313.000 1.000
6.430 302.000 1.000
6.440 281.000 1.000
6.450 299.000 1.000
6.460 301.000 1.000
6.470 317.000 1.000
6.480 303.000 1.000
6.490 285.000 1.000
6.500 297.000 1.000
6.510 274.000 1.000
6.520 299.000 1.000
6.530 291.000 1.000
6.540 309.000 1.000
6.550 279.000 1.000
6.560 291.000 1.000
6.570 317.000 1.000
6.580 297.000 1.000
6.590 296.000 1.000
6.600 305.000 1.000
6.610 298.000 1.000
6.620 286.000 1.000
6.630 298.000 1.000
6.640 283.000 1.000
6.650 275.000 1.000
6.660 313.000 1.000
6.670 288.000 1.000
6.680 265.000 1.000
6.690 256.000 1.000
6.700 254.000 1.000
6.710 254.000 1.000
6.720 278.000 1.000
6.730 284.000 1.000
6.740 265.000 1.000
6.750 276.000 1.000
6.760 299.000 1.000
6.770 297.000 1.000
6.780 304.000 1.000
6.790 300.000 1.000
6.800 311.000 1.000
6.810 301.000 1.000
6.820 305.000 1.000
6.830 309.000 1.000
6.840 302.000 1.000
6.850 273.000 1.000
6.860 293.000 1.000
6.870 303.000 1.000
6.880 289.000 1.000
6.890 282.000 1.000
6.900 280.000 1.000
6.910 268.000 1.000
6.920 271.000 1.000
6.930 273.000 1.000
6.940 281.000 1.000
6.950 285.000 1.000
6.960 308.000 1.000
6.970 291.000 1.000
6.980 286.000 1.000
6.990 287.000 1.000
7.000 294.000 1.000
7.010 290.000 1.000
7.020 290.000 1.000
7.030 292.000 1.000
7.040 308.000 1.000
7.050 312.000 1.000
7.060 299.000 1.000
7.070 291.000 1.000
7.080 311.000 1.000
7.090 303.000 1.000
7.100 293.000 1.000
7.110 284.000 1.000
7.120 299.000 1.000
7.130 313.000 1.000
7.140 306.000 1.000
7.150 298.000 1.000
7.160 338.000 1.000
7.170 300.000 1.000
7.180 308.000 1.000
7.190 318.000 1.000
7.200 320.000 1.000
7.210 305.000 1.000
7.220 319.000 1.000
7.230 322.000 1.000
7.240 294.000 1.000
7.250 295.000 1.000
7.260 310.000 1.000
7.270 310.000 1.000
7.280 295.000 1.000
7.290 308.000 1.000
7.300 307.000 1.000
7.310 273.000 1.000
7.320 272.000 1.000
7.330 307.000 1.000
7.340 288.000 1.000
7.350 272.000 1.000
7.360 289.000 1.000
7.370 276.000 1.000
7.380 283.000 1.000
7.390 311.000 1.000
7.400 319.000 1.000
7.410 308.000 1.000
7.420 314.000 1.000
7.430 330.000 1.000
7.440 313.000 1.000
7.450 304.000 1.000
7.460 318.000 1.000
7.470 317.000 1.000
7.480 322.000 1.000
7.490 321.000 1.000
7.500 309.000 1.000
7.510 302.000 1.000
7.520 343.000 1.000
7.530 311.000 1.000
7.540 322.000 1.000
7.550 313.000 1.000
7.560 326.000 1.000
7.570 328.000 1.000
7.580 352.000 1.000
7.590 349.000 1.000
7.600 347.000 1.000
7.610 365.000 1.000
7.620 350.000 1.000
7.630 334.000 1.000
7.640 358.000 1.000
7.650 374.000 1.000
7.660 368.000 1.000
7.670 389.000 1.000
7.680 408.000 1.000
7.690 394.000 1.000
7.700 408.000 1.000
7.710 412.000 1.000
7.720 449.000 1.000
7.730 470.000 1.000
7.740 477.000 1.000
7.750 499.000 1.000
7.760 529.000 1.000
7.770 569.000 1.000
7.780 598.000 1.000
7.790 682.000 1.000
7.800 716.000 1.000
7.810 734.000 1.000
7.820 811.000 1.000
7.830 879.000 1.000
7.840 1000.000 1.000
7.850 1073.000 1.000
7.860 1184.000 1.000
7.870 1315.000 1.000
7.880 1457.000 1.000
7.890 1681.000 1.000
7.900 1847.000 1.000
7.910 2065.000 1.000
7.920 2359.000 1.000
7.930 2708.000 1.000
7.940 3007.000 1.000
7.950 3231.000 1.000
7.960 3499.000 1.000
7.970 3807.000 1.000
7.980 3846.000 1.000
7.990 3745.000 1.000
8.000 3298.000 1.000
8.010 2694.000 1.000
8.020 2072.000 1.000
8.030 1578.000 1.000
8.040 1119.000 1.000
8.050 806.000 1.000
8.060 663.000 1.000
8.070 566.000 1.000
8.080 511.000 1.000
8.090 456.000 1.000
8.100 444.000 1.000
8.110 479.000 1.000
8.120 451.000 1.000
8.130 457.000 1.000
8.140 488.000 1.000
8.150 452.000 1.000
8.160 435.000 1.000
8.170 410.000 1.000
8.180 404.000 1.000
8.190 423.000 1.000
8.200 405.000 1.000
8.210 395.000 1.000
8.220 407.000 1.000
8.230 394.000 1.000
8.240 379.000 1.000
8.250 351.000 1.000
8.260 366.000 1.000
8.270 389.000 1.000
8.280 367.000 1.000
8.290 361.000 1.000
8.300 370.000 1.000
8.310 343.000 1.000
8.320 352.000 1.000
8.330 356.000 1.000
8.340 334.000 1.000
8.350 350.000 1.000
8.360 367.000 1.000
8.370 350.000 1.000
8.380 337.000 1.000
8.390 338.000 1.000
8.400 360.000 1.000
8.410 337.000 1.000
8.420 339.000 1.000
8.430 337.000 1.000
