*RAS_DATA_START
*RAS_HEADER_START
*CORR_POS_DB_NAME "Sample"
*CORR_POS_GONIO_RADIUS ""
*CORR_POS_NODE_INDEX01 ""
*CORR_POS_NODE_INDEX02 ""
*CORR_POS_NODE_INDEX03 ""
*CORR_POS_NODE_INDEX04 ""
*CORR_POS_NODE_INDEX05 ""
*CORR_POS_NODE_INDEX06 ""
*CORR_POS_NODE_INDEX07 ""
*CORR_POS_NODE_INDEX08 ""
*CORR_POS_NODE_INDEX09 ""
*CORR_POS_NODE_INDEX10 ""
*CORR_POS_NODE_INDEX11 ""
*CORR_POS_NODE_LABEL01 "Si(111)"
*CORR_POS_NODE_LABEL02 "Si(220)"
*CORR_POS_NODE_LABEL03 "Si(311)"
*CORR_POS_NODE_LABEL04 "Si(400)"
*CORR_POS_NODE_LABEL05 "Si(331)"
*CORR_POS_NODE_LABEL06 "Si(422)"
*CORR_POS_NODE_LABEL07 "Si(511)"
*CORR_POS_NODE_LABEL08 "Si(440)"
*CORR_POS_NODE_LABEL09 "Si(531)"
*CORR_POS_NODE_LABEL10 "Si(620)"
*CORR_POS_NODE_LABEL11 "Si(533)"
*CORR_POS_NODE_POS_CALC01 "28.377"
*CORR_POS_NODE_POS_CALC02 "47.2506"
*CORR_POS_NODE_POS_CALC03 "56.0725"
*CORR_POS_NODE_POS_CALC04 "69.0822"
*CORR_POS_NODE_POS_CALC05 "76.3294"
*CORR_POS_NODE_POS_CALC06 "87.9853"
*CORR_POS_NODE_POS_CALC07 "94.9091"
*CORR_POS_NODE_POS_CALC08 "106.668"
*CORR_POS_NODE_POS_CALC09 "114.054"
*CORR_POS_NODE_POS_CALC10 "127.511"
*CORR_POS_NODE_POS_CALC11 "136.864"
*CORR_POS_NODE_POS_MEAS01 "28.377"
*CORR_POS_NODE_POS_MEAS02 "47.2506"
*CORR_POS_NODE_POS_MEAS03 "56.0725"
*CORR_POS_NODE_POS_MEAS04 "69.0822"
*CORR_POS_NODE_POS_MEAS05 "76.3294"
*CORR_POS_NODE_POS_MEAS06 "87.9853"
*CORR_POS_NODE_POS_MEAS07 "94.9091"
*CORR_POS_NODE_POS_MEAS08 "106.668"
*CORR_POS_NODE_POS_MEAS09 "114.054"
*CORR_POS_NODE_POS_MEAS10 "127.511"
*CORR_POS_NODE_POS_MEAS11 "136.864"
*CORR_POS_OPT_ATTR "集中法"
*CORR_POS_PARAM_MU ""
*CORR_POS_PARAM_PL ""
*CORR_POS_SEMODEL_TYPE "0"
*CORR_POS_STANDARD_TYPE ""
*CORR_POS_VALUE_ANALYZER "None"
*CORR_POS_VALUE_CMONO "None"
*CORR_POS_VALUE_IMONO "None"
*CORR_POS_VALUE_IS "1.250deg"
*CORR_POS_VALUE_ISL "10.0mm"
*CORR_POS_VALUE_ISOLLER "5.0deg"
*CORR_POS_VALUE_RS1 "1.250deg"
*CORR_POS_VALUE_RS2 "0.3mm"
*CORR_POS_VALUE_RSOLLER "5.0deg"
*CORR_POS_XG_FOCUS_L ""
*CORR_POS_XG_WAVE_TYPE ""
*CORR_POS_XG_WAVE_VALUE ""
*DISP_FMT_X "%.2f"
*DISP_FMT_Y "%.0f"
*DISP_FULLSCALE "12520.0000000000"
*DISP_LINE_COLOR "255.0000000000"
*DISP_LINE_STYLE "0.0000000000"
*DISP_LINE_WIDTH "0.2500000000"
*DISP_NOTE "測定データ-2"
*DISP_OFFSET_Y "0.0000000000"
*DISP_PEAKSEARCH_UNIT_Y "CPS"
*DISP_RANGE_BOTTOM "0.0000000000"
*DISP_RANGE_LEFT "3.0000000000"
*DISP_RANGE_LOGCUTOFF "0.0100000000"
*DISP_RANGE_RIGHT "55.0000000000"
*DISP_RANGE_TOP "12520.0000000000"
*DISP_SCALE_MODE_Y "0.0000000000"
*DISP_TAB_NAME "2θ/θ"
*DISP_TITLE_Y "強度"
*DISP_UNIT_Y "CPS"
*DISP_WINDOW_NAME "MSG_MACROENGINE"
*FILE_COMMENT " "
*FILE_MD5 ""
*FILE_MEMO " "
*FILE_OPERATOR "Administrator"
*FILE_PART_ID "MEAS_PBEA_00223"
*FILE_SAMPLE " "
*FILE_TYPE "RAS_RAW"
*FILE_USERGROUP "システムマネージャ"
*FILE_VERSION "1.0000000000"
*HW_ATTACHMENT_ID "ATT1031"
*HW_ATTACHMENT_NAME "6サンプルチェンジャ|ASC-6"
*HW_COUNTER_ID-0 "CUT0025"
*HW_COUNTER_ID-1 "CUT0020"
*HW_COUNTER_ID-2 "CUT0020"
*HW_COUNTER_ID-3 "CMC0021"
*HW_COUNTER_NAME-0 "D/teX Ultra|D/teX Ultra"
*HW_COUNTER_NAME-1 "None|None"
*HW_COUNTER_NAME-2 "None|None"
*HW_COUNTER_NAME-3 "検出器モノクロメータ|Detector monochromator"
*HW_COUNTER_SELECT_NAME "D/teX Ultra|D/teX Ultra"
*HW_GONIOMETER_ID "GON0070"
*HW_GONIOMETER_NAME "MiniFlex 300/600|MiniFlex 300/600"
*HW_GONIOMETER_RADIUS-0 "79.0"
*HW_GONIOMETER_RADIUS-1 "91.5"
*HW_GONIOMETER_RADIUS-2 "150.0"
*HW_GONIOMETER_RADIUS-3 "0"
*HW_GONIOMETER_RADIUS-4 "103.4"
*HW_GONIOMETER_RADIUS-5 "150.0"
*HW_GONIOMETER_RADIUS-6 "46.6"
*HW_GONIOMETER_RADIUS-7 "160.0"
*HW_I_OPT_ID-0 "ISL0021"
*HW_I_OPT_ID-1 "ISO0021"
*HW_I_OPT_NAME-0 "発散スリット|Divergence slit"
*HW_I_OPT_NAME-1 "入射平行スリット|Incident parallel slit"
*HW_R_ATTENUATER_AUTOMODE "0"
*HW_R_OPT_ID-0 "RSS0021"
*HW_R_OPT_ID-1 "RSO0021"
*HW_R_OPT_ID-2 "RRS0021"
*HW_R_OPT_NAME-0 "散乱スリット|Scattering slit"
*HW_R_OPT_NAME-1 "受光平行スリット|Receiving soller slit"
*HW_R_OPT_NAME-2 "受光スリット|Receiving slit"
*HW_SAMPLE_HOLDER_ID "SMP0000"
*HW_SAMPLE_HOLDER_NAME "無し|None"
*HW_XG_CURRENT_MAX "15"
*HW_XG_CURRENT_MIN "2"
*HW_XG_CURRENT_RESOLUTION "1"
*HW_XG_CURRENT_UNIT "mA"
*HW_XG_FOCUS "1mm x 10mm"
*HW_XG_FOCUS_TYPE "Normal"
*HW_XG_ID "1060"
*HW_XG_NAME "300W/600W 封入管-B|300W/600W Sealed tube-B"
*HW_XG_TARGET_ATOMIC_NUMBER "29.0000000000"
*HW_XG_TARGET_NAME "Cu"
*HW_XG_TYPE "Hermetic"
*HW_XG_VOLTAGE_MAX "40"
*HW_XG_VOLTAGE_MIN "20"
*HW_XG_VOLTAGE_RESOLUTION "1"
*HW_XG_VOLTAGE_UNIT "kV"
*HW_XG_WATT_MAX "1"
*HW_XG_WATT_UNIT "kW"
*HW_XG_WAVE_LENGTH_ALPHA1 "1.540593"
*HW_XG_WAVE_LENGTH_ALPHA2 "1.544414"
*HW_XG_WAVE_LENGTH_BETA "1.392250"
*MEAS_COND_AXIS_NAME-0 "2θ/θ"
*MEAS_COND_AXIS_NAME-1 "試料回転"
*MEAS_COND_AXIS_NAME-2 "試料交換"
*MEAS_COND_AXIS_NAME-3 "Soller(inc.)"
*MEAS_COND_AXIS_NAME-4 "IHS"
*MEAS_COND_AXIS_NAME-5 "DS"
*MEAS_COND_AXIS_NAME-6 "SS"
*MEAS_COND_AXIS_NAME-7 "Soller(rec.)"
*MEAS_COND_AXIS_NAME-8 "RS"
*MEAS_COND_AXIS_NAME-9 "フィルター"
*MEAS_COND_AXIS_NAME-10 "モノクロメータ"
*MEAS_COND_AXIS_NAME-11 "PHA"
*MEAS_COND_AXIS_NAME_INTERNAL-0 "TwoThetaTheta"
*MEAS_COND_AXIS_NAME_INTERNAL-1 "Spin"
*MEAS_COND_AXIS_NAME_INTERNAL-2 "Change"
*MEAS_COND_AXIS_NAME_INTERNAL-3 "IncidentSollerSlit"
*MEAS_COND_AXIS_NAME_INTERNAL-4 "IncidentAxdSlit"
*MEAS_COND_AXIS_NAME_INTERNAL-5 "IncidentSlitBox"
*MEAS_COND_AXIS_NAME_INTERNAL-6 "ReceivingSlitBox1"
*MEAS_COND_AXIS_NAME_INTERNAL-7 "ReceivingSollerSlit"
*MEAS_COND_AXIS_NAME_INTERNAL-8 "ReceivingSlitBox2"
*MEAS_COND_AXIS_NAME_INTERNAL-9 "Filter"
*MEAS_COND_AXIS_NAME_INTERNAL-10 "CounterMonochromator"
*MEAS_COND_AXIS_NAME_INTERNAL-11 "PHA"
*MEAS_COND_AXIS_NAME_MAGICNO-0 "268632064.0000000000"
*MEAS_COND_AXIS_NAME_MAGICNO-1 "16842752.0000000000"
*MEAS_COND_AXIS_NAME_MAGICNO-2 "16842752.0000000000"
*MEAS_COND_AXIS_NAME_MAGICNO-3 "20971521.0000000000"
*MEAS_COND_AXIS_NAME_MAGICNO-4 "22020097.0000000000"
*MEAS_COND_AXIS_NAME_MAGICNO-5 "22020097.0000000000"
*MEAS_COND_AXIS_NAME_MAGICNO-6 "23068673.0000000000"
*MEAS_COND_AXIS_NAME_MAGICNO-7 "20971521.0000000000"
*MEAS_COND_AXIS_NAME_MAGICNO-8 "23068673.0000000000"
*MEAS_COND_AXIS_NAME_MAGICNO-9 "20971521.0000000000"
*MEAS_COND_AXIS_NAME_MAGICNO-10 "20971521.0000000000"
*MEAS_COND_AXIS_NAME_MAGICNO-11 "0.0000000000"
*MEAS_COND_AXIS_OFFSET-0 "0.0000000000"
*MEAS_COND_AXIS_OFFSET-1 "-"
*MEAS_COND_AXIS_OFFSET-2 "-"
*MEAS_COND_AXIS_OFFSET-3 "-"
*MEAS_COND_AXIS_OFFSET-4 "-"
*MEAS_COND_AXIS_OFFSET-5 "-"
*MEAS_COND_AXIS_OFFSET-6 "-"
*MEAS_COND_AXIS_OFFSET-7 "-"
*MEAS_COND_AXIS_OFFSET-8 "-"
*MEAS_COND_AXIS_OFFSET-9 "-"
*MEAS_COND_AXIS_OFFSET-10 "-"
*MEAS_COND_AXIS_OFFSET-11 "-"
*MEAS_COND_AXIS_POSITION-0 "10.0000000000"
*MEAS_COND_AXIS_POSITION-1 "0.0000000000"
*MEAS_COND_AXIS_POSITION-2 "4.0000000000"
*MEAS_COND_AXIS_POSITION-3 "2.5deg"
*MEAS_COND_AXIS_POSITION-4 "10.0mm"
*MEAS_COND_AXIS_POSITION-5 "1.250deg"
*MEAS_COND_AXIS_POSITION-6 "13.0mm(Open)"
*MEAS_COND_AXIS_POSITION-7 "2.5deg"
*MEAS_COND_AXIS_POSITION-8 "13.0mm"
*MEAS_COND_AXIS_POSITION-9 "K-beta(x1)"
*MEAS_COND_AXIS_POSITION-10 "None"
*MEAS_COND_AXIS_POSITION-11 "34.0000000000"
*MEAS_COND_AXIS_UNIT-0 "deg"
*MEAS_COND_AXIS_UNIT-1 ""
*MEAS_COND_AXIS_UNIT-2 ""
*MEAS_COND_AXIS_UNIT-3 ""
*MEAS_COND_AXIS_UNIT-4 ""
*MEAS_COND_AXIS_UNIT-5 ""
*MEAS_COND_AXIS_UNIT-6 ""
*MEAS_COND_AXIS_UNIT-7 ""
*MEAS_COND_AXIS_UNIT-8 ""
*MEAS_COND_AXIS_UNIT-9 ""
*MEAS_COND_AXIS_UNIT-10 ""
*MEAS_COND_AXIS_UNIT-11 "div"
*MEAS_COND_COUNTER_CNTLOSS_CORR "0.0000000000"
*MEAS_COND_COUNTER_PHABASE "34.0000000000"
*MEAS_COND_COUNTER_PHAWINDOW "14.0000000000"
*MEAS_COND_COUNTER_PHA_UNIT "div"
*MEAS_COND_COUNTER_TAUDIFF "0.2500000000"
*MEAS_COND_COUNTER_TAUINT "0.7500000000"
*MEAS_COND_IRRADIATION_MODE "OFF"
*MEAS_COND_IRRADIATION_WIDTH ""
*MEAS_COND_OPT_ATTR " "
*MEAS_COND_OPT_NAME ""
*MEAS_COND_UNSYMMETRIC_MODE "OFF"
*MEAS_COND_XG_CURRENT "15.0000000000"
*MEAS_COND_XG_VOLTAGE "40.0000000000"
*MEAS_COND_XG_WAVE_TYPE "Ka"
*MEAS_DATA_COUNT "5201.0000000000"
*MEAS_SCAN_AXIS_X "2θ/θ"
*MEAS_SCAN_AXIS_X_INTERNAL "TwoThetaTheta"
*MEAS_SCAN_END_TIME "11/22/23 15:41:14"
*MEAS_SCAN_MODE "CONTINUOUS"
*MEAS_SCAN_MONITOR "0"
*MEAS_SCAN_RESOLUTION_X "0.005"
*MEAS_SCAN_SPEED "10.000"
*MEAS_SCAN_SPEED_UNIT "deg/min"
*MEAS_SCAN_SPEED_USER "10.000"
*MEAS_SCAN_START "3.0000000000"
*MEAS_SCAN_START_TIME "11/22/23 15:35:14"
*MEAS_SCAN_STEP "0.0100000000"
*MEAS_SCAN_STOP "55.0000000000"
*MEAS_SCAN_UNIT_X "deg"
*MEAS_SCAN_UNIT_Y "counts"
*SLIT_SYSTEM "0"
*RAS_HEADER_END
*RAS_INT_START
3.000 52.000 1.000
3.010 55.000 1.000
3.020 50.000 1.000
3.030 56.000 1.000
3.040 52.000 1.000
3.050 48.000 1.000
3.060 41.000 1.000
3.070 48.000 1.000
3.080 45.000 1.000
3.090 48.000 1.000
3.100 52.000 1.000
3.110 43.000 1.000
3.120 53.000 1.000
3.130 47.000 1.000
3.140 53.000 1.000
3.150 56.000 1.000
3.160 49.000 1.000
3.170 56.000 1.000
3.180 43.000 1.000
3.190 49.000 1.000
3.200 53.000 1.000
3.210 55.000 1.000
3.220 50.000 1.000
3.230 52.000 1.000
3.240 53.000 1.000
3.250 59.000 1.000
3.260 53.000 1.000
3.270 55.000 1.000
3.280 62.000 1.000
3.290 61.000 1.000
3.300 60.000 1.000
3.310 54.000 1.000
3.320 45.000 1.000
3.330 43.000 1.000
3.340 44.000 1.000
3.350 50.000 1.000
3.360 48.000 1.000
3.370 51.000 1.000
3.380 36.000 1.000
3.390 35.000 1.000
3.400 44.000 1.000
3.410 41.000 1.000
3.420 38.000 1.000
3.430 40.000 1.000
3.440 42.000 1.000
3.450 48.000 1.000
3.460 46.000 1.000
3.470 42.000 1.000
3.480 53.000 1.000
3.490 42.000 1.000
3.500 37.000 1.000
3.510 32.000 1.000
3.520 40.000 1.000
3.530 32.000 1.000
3.540 35.000 1.000
3.550 33.000 1.000
3.560 28.000 1.000
3.570 38.000 1.000
3.580 32.000 1.000
3.590 30.000 1.000
3.600 36.000 1.000
3.610 36.000 1.000
3.620 36.000 1.000
3.630 34.000 1.000
3.640 31.000 1.000
3.650 32.000 1.000
3.660 35.000 1.000
3.670 39.000 1.000
3.680 35.000 1.000
3.690 33.000 1.000
3.700 34.000 1.000
3.710 38.000 1.000
3.720 41.000 1.000
3.730 41.000 1.000
3.740 40.000 1.000
3.750 34.000 1.000
3.760 36.000 1.000
3.770 40.000 1.000
3.780 42.000 1.000
3.790 38.000 1.000
3.800 36.000 1.000
3.810 31.000 1.000
3.820 38.000 1.000
3.830 34.000 1.000
3.840 36.000 1.000
3.850 38.000 1.000
3.860 35.000 1.000
3.870 37.000 1.000
3.880 34.000 1.000
3.890 34.000 1.000
3.900 31.000 1.000
3.910 38.000 1.000
3.920 37.000 1.000
3.930 36.000 1.000
3.940 37.000 1.000
3.950 39.000 1.000
3.960 31.000 1.000
3.970 35.000 1.000
3.980 33.000 1.000
3.990 26.000 1.000
4.000 26.000 1.000
4.010 32.000 1.000
4.020 32.000 1.000
4.030 34.000 1.000
4.040 28.000 1.000
4.050 32.000 1.000
4.060 32.000 1.000
4.070 32.000 1.000
4.080 28.000 1.000
4.090 23.000 1.000
4.100 29.000 1.000
4.110 29.000 1.000
4.120 31.000 1.000
4.130 38.000 1.000
4.140 30.000 1.000
4.150 28.000 1.000
4.160 23.000 1.000
4.170 28.000 1.000
4.180 28.000 1.000
4.190 33.000 1.000
4.200 37.000 1.000
4.210 33.000 1.000
4.220 31.000 1.000
4.230 33.000 1.000
4.240 32.000 1.000
4.250 33.000 1.000
4.260 30.000 1.000
4.270 24.000 1.000
4.280 26.000 1.000
4.290 28.000 1.000
4.300 28.000 1.000
4.310 31.000 1.000
4.320 31.000 1.000
4.330 26.000 1.000
4.340 24.000 1.000
4.350 29.000 1.000
4.360 29.000 1.000
4.370 31.000 1.000
4.380 27.000 1.000
4.390 32.000 1.000
4.400 28.000 1.000
4.410 26.000 1.000
4.420 27.000 1.000
4.430 24.000 1.000
4.440 26.000 1.000
4.450 22.000 1.000
4.460 23.000 1.000
4.470 24.000 1.000
4.480 25.000 1.000
4.490 27.000 1.000
4.500 30.000 1.000
4.510 36.000 1.000
4.520 31.000 1.000
4.530 26.000 1.000
4.540 31.000 1.000
4.550 28.000 1.000
4.560 25.000 1.000
4.570 29.000 1.000
4.580 28.000 1.000
4.590 24.000 1.000
4.600 26.000 1.000
4.610 28.000 1.000
4.620 26.000 1.000
4.630 22.000 1.000
4.640 26.000 1.000
4.650 30.000 1.000
4.660 24.000 1.000
4.670 27.000 1.000
4.680 26.000 1.000
4.690 23.000 1.000
4.700 21.000 1.000
4.710 26.000 1.000
4.720 27.000 1.000
4.730 24.000 1.000
4.740 30.000 1.000
4.750 28.000 1.000
4.760 27.000 1.000
4.770 30.000 1.000
4.780 27.000 1.000
4.790 21.000 1.000
4.800 25.000 1.000
4.810 25.000 1.000
4.820 27.000 1.000
4.830 24.000 1.000
4.840 37.000 1.000
4.850 36.000 1.000
4.860 27.000 1.000
4.870 26.000 1.000
4.880 28.000 1.000
4.890 25.000 1.000
4.900 27.000 1.000
4.910 29.000 1.000
4.920 26.000 1.000
4.930 29.000 1.000
4.940 27.000 1.000
4.950 24.000 1.000
4.960 28.000 1.000
4.970 34.000 1.000
4.980 29.000 1.000
4.990 23.000 1.000
5.000 20.000 1.000
5.010 30.000 1.000
5.020 29.000 1.000
5.030 35.000 1.000
5.040 32.000 1.000
5.050 33.000 1.000
5.060 32.000 1.000
5.070 36.000 1.000
5.080 29.000 1.000
5.090 36.000 1.000
5.100 33.000 1.000
5.110 31.000 1.000
5.120 37.000 1.000
5.130 35.000 1.000
5.140 35.000 1.000
5.150 33.000 1.000
5.160 29.000 1.000
5.170 32.000 1.000
5.180 40.000 1.000
5.190 40.000 1.000
5.200 41.000 1.000
5.210 35.000 1.000
5.220 32.000 1.000
5.230 30.000 1.000
5.240 28.000 1.000
5.250 41.000 1.000
5.260 38.000 1.000
5.270 40.000 1.000
5.280 36.000 1.000
5.290 40.000 1.000
5.300 39.000 1.000
5.310 34.000 1.000
5.320 36.000 1.000
5.330 34.000 1.000
5.340 33.000 1.000
5.350 35.000 1.000
5.360 31.000 1.000
5.370 28.000 1.000
5.380 28.000 1.000
5.390 43.000 1.000
5.400 33.000 1.000
5.410 32.000 1.000
5.420 37.000 1.000
5.430 35.000 1.000
5.440 33.000 1.000
5.450 28.000 1.000
5.460 25.000 1.000
5.470 21.000 1.000
5.480 25.000 1.000
5.490 21.000 1.000
5.500 23.000 1.000
5.510 21.000 1.000
5.520 23.000 1.000
5.530 28.000 1.000
5.540 24.000 1.000
5.550 24.000 1.000
5.560 18.000 1.000
5.570 17.000 1.000
5.580 26.000 1.000
5.590 22.000 1.000
5.600 18.000 1.000
5.610 29.000 1.000
5.620 21.000 1.000
5.630 24.000 1.000
5.640 27.000 1.000
5.650 28.000 1.000
5.660 24.000 1.000
5.670 22.000 1.000
5.680 19.000 1.000
5.690 23.000 1.000
5.700 21.000 1.000
5.710 22.000 1.000
5.720 27.000 1.000
5.730 27.000 1.000
5.740 29.000 1.000
5.750 31.000 1.000
5.760 29.000 1.000
5.770 27.000 1.000
5.780 28.000 1.000
5.790 33.000 1.000
5.800 25.000 1.000
5.810 19.000 1.000
5.820 24.000 1.000
5.830 29.000 1.000
5.840 35.000 1.000
5.850 32.000 1.000
5.860 33.000 1.000
5.870 26.000 1.000
5.880 22.000 1.000
5.890 25.000 1.000
5.900 23.000 1.000
5.910 23.000 1.000
5.920 21.000 1.000
5.930 23.000 1.000
5.940 16.000 1.000
5.950 24.000 1.000
5.960 26.000 1.000
5.970 22.000 1.000
5.980 23.000 1.000
5.990 27.000 1.000
6.000 24.000 1.000
6.010 28.000 1.000
6.020 34.000 1.000
6.030 30.000 1.000
6.040 28.000 1.000
6.050 25.000 1.000
6.060 24.000 1.000
6.070 22.000 1.000
6.080 22.000 1.000
6.090 19.000 1.000
6.100 22.000 1.000
6.110 28.000 1.000
6.120 23.000 1.000
6.130 17.000 1.000
6.140 21.000 1.000
6.150 24.000 1.000
6.160 21.000 1.000
6.170 19.000 1.000
6.180 27.000 1.000
6.190 27.000 1.000
6.200 23.000 1.000
6.210 25.000 1.000
6.220 21.000 1.000
6.230 26.000 1.000
6.240 26.000 1.000
6.250 26.000 1.000
6.260 25.000 1.000
6.270 26.000 1.000
6.280 24.000 1.000
6.290 19.000 1.000
6.300 21.000 1.000
6.310 28.000 1.000
6.320 28.000 1.000
6.330 32.000 1.000
6.340 20.000 1.000
6.350 17.000 1.000
6.360 22.000 1.000
6.370 26.000 1.000
6.380 22.000 1.000
6.390 20.000 1.000
6.400 23.000 1.000
6.410 24.000 1.000
6.420 24.000 1.000
6.430 25.000 1.000
6.440 26.000 1.000
6.450 23.000 1.000
6.460 24.000 1.000
6.470 25.000 1.000
6.480 25.000 1.000
6.490 29.000 1.000
6.500 21.000 1.000
6.510 19.000 1.000
6.520 23.000 1.000
6.530 29.000 1.000
6.540 26.000 1.000
6.550 23.000 1.000
6.560 22.000 1.000
6.570 21.000 1.000
6.580 23.000 1.000
6.590 23.000 1.000
6.600 24.000 1.000
6.610 23.000 1.000
6.620 17.000 1.000
6.630 20.000 1.000
6.640 18.000 1.000
6.650 29.000 1.000
6.660 29.000 1.000
6.670 18.000 1.000
6.680 23.000 1.000
6.690 18.000 1.000
6.700 22.000 1.000
6.710 25.000 1.000
6.720 21.000 1.000
6.730 18.000 1.000
6.740 22.000 1.000
6.750 18.000 1.000
6.760 26.000 1.000
6.770 30.000 1.000
6.780 24.000 1.000
6.790 19.000 1.000
6.800 26.000 1.000
6.810 29.000 1.000
6.820 28.000 1.000
6.830 30.000 1.000
6.840 26.000 1.000
6.850 18.000 1.000
6.860 19.000 1.000
6.870 24.000 1.000
6.880 28.000 1.000
6.890 21.000 1.000
6.900 22.000 1.000
6.910 21.000 1.000
6.920 14.000 1.000
6.930 20.000 1.000
6.940 26.000 1.000
6.950 25.000 1.000
6.960 28.000 1.000
6.970 25.000 1.000
6.980 23.000 1.000
6.990 20.000 1.000
7.000 26.000 1.000
7.010 28.000 1.000
7.020 19.000 1.000
7.030 20.000 1.000
7.040 19.000 1.000
7.050 22.000 1.000
7.060 32.000 1.000
7.070 31.000 1.000
7.080 24.000 1.000
7.090 26.000 1.000
7.100 30.000 1.000
7.110 27.000 1.000
7.120 24.000 1.000
7.130 21.000 1.000
7.140 14.000 1.000
7.150 17.000 1.000
7.160 28.000 1.000
7.170 28.000 1.000
7.180 22.000 1.000
7.190 26.000 1.000
7.200 30.000 1.000
7.210 23.000 1.000
7.220 26.000 1.000
7.230 24.000 1.000
7.240 25.000 1.000
7.250 29.000 1.000
7.260 26.000 1.000
7.270 26.000 1.000
7.280 24.000 1.000
7.290 18.000 1.000
7.300 29.000 1.000
7.310 32.000 1.000
7.320 27.000 1.000
7.330 20.000 1.000
7.340 30.000 1.000
7.350 27.000 1.000
7.360 25.000 1.000
7.370 20.000 1.000
7.380 30.000 1.000
7.390 28.000 1.000
7.400 27.000 1.000
7.410 23.000 1.000
7.420 32.000 1.000
7.430 29.000 1.000
7.440 29.000 1.000
7.450 28.000 1.000
7.460 24.000 1.000
7.470 22.000 1.000
7.480 23.000 1.000
7.490 26.000 1.000
7.500 30.000 1.000
7.510 30.000 1.000
7.520 36.000 1.000
7.530 30.000 1.000
7.540 31.000 1.000
7.550 32.000 1.000
7.560 25.000 1.000
7.570 30.000 1.000
7.580 26.000 1.000
7.590 34.000 1.000
7.600 36.000 1.000
7.610 33.000 1.000
7.620 31.000 1.000
7.630 33.000 1.000
7.640 37.000 1.000
7.650 37.000 1.000
7.660 38.000 1.000
7.670 39.000 1.000
7.680 44.000 1.000
7.690 41.000 1.000
7.700 39.000 1.000
7.710 44.000 1.000
7.720 48.000 1.000
7.730 50.000 1.000
7.740 55.000 1.000
7.750 50.000 1.000
7.760 52.000 1.000
7.770 71.000 1.000
7.780 87.000 1.000
7.790 92.000 1.000
7.800 94.000 1.000
7.810 111.000 1.000
7.820 127.000 1.000
7.830 151.000 1.000
7.840 150.000 1.000
7.850 178.000 1.000
7.860 209.000 1.000
7.870 215.000 1.000
7.880 235.000 1.000
7.890 236.000 1.000
7.900 233.000 1.000
7.910 251.000 1.000
7.920 258.000 1.000
7.930 254.000 1.000
7.940 242.000 1.000
7.950 210.000 1.000
7.960 188.000 1.000
7.970 190.000 1.000
7.980 166.000 1.000
7.990 134.000 1.000
8.000 108.000 1.000
8.010 87.000 1.000
8.020 76.000 1.000
8.030 74.000 1.000
8.040 62.000 1.000
8.050 55.000 1.000
8.060 47.000 1.000
8.070 44.000 1.000
8.080 36.000 1.000
8.090 40.000 1.000
8.100 33.000 1.000
8.110 36.000 1.000
8.120 42.000 1.000
8.130 39.000 1.000
8.140 37.000 1.000
8.150 38.000 1.000
8.160 38.000 1.000
8.170 42.000 1.000
8.180 36.000 1.000
8.190 42.000 1.000
8.200 37.000 1.000
8.210 37.000 1.000
8.220 36.000 1.000
8.230 37.000 1.000
8.240 31.000 1.000
8.250 39.000 1.000
8.260 31.000 1.000
8.270 34.000 1.000
8.280 32.000 1.000
8.290 32.000 1.000
8.300 41.000 1.000
8.310 34.000 1.000
8.320 27.000 1.000
8.330 28.000 1.000
8.340 32.000 1.000
8.350 34.000 1.000
8.360 32.000 1.000
8.370 32.000 1.000
8.380 40.000 1.000
8.390 36.000 1.000
8.400 30.000 1.000
8.410 25.000 1.000
8.420 28.000 1.000
8.430 30.000 1.000
8.440 24.000 1.000
8.450 28.000 1.000
8.460 31.000 1.000
8.470 30.000 1.000
8.480 26.000 1.000
8.490 30.000 1.000
8.500 42.000 1.000
8.510 38.000 1.000
8.520 36.000 1.000
8.530 39.000 1.000
8.540 40.000 1.000
8.550 42.000 1.000
8.560 35.000 1.000
8.570 29.000 1.000
8.580 27.000 1.000
8.590 29.000 1.000
8.600 25.000 1.000
8.610 34.000 1.000
8.620 31.000 1.000
8.630 24.000 1.000
8.640 21.000 1.000
8.650 25.000 1.000
8.660 30.000 1.000
8.670 35.000 1.000
8.680 42.000 1.000
8.690 33.000 1.000
8.700 35.000 1.000
8.710 38.000 1.000
