*RAS_DATA_START
*RAS_HEADER_START
*CORR_POS_DB_NAME "Sample"
*CORR_POS_GONIO_RADIUS ""
*CORR_POS_NODE_INDEX01 ""
*CORR_POS_NODE_INDEX02 ""
*CORR_POS_NODE_INDEX03 ""
*CORR_POS_NODE_INDEX04 ""
*CORR_POS_NODE_INDEX05 ""
*CORR_POS_NODE_INDEX06 ""
*CORR_POS_NODE_INDEX07 ""
*CORR_POS_NODE_INDEX08 ""
*CORR_POS_NODE_INDEX09 ""
*CORR_POS_NODE_INDEX10 ""
*CORR_POS_NODE_INDEX11 ""
*CORR_POS_NODE_LABEL01 "Si(111)"
*CORR_POS_NODE_LABEL02 "Si(220)"
*CORR_POS_NODE_LABEL03 "Si(311)"
*CORR_POS_NODE_LABEL04 "Si(400)"
*CORR_POS_NODE_LABEL05 "Si(331)"
*CORR_POS_NODE_LABEL06 "Si(422)"
*CORR_POS_NODE_LABEL07 "Si(511)"
*CORR_POS_NODE_LABEL08 "Si(440)"
*CORR_POS_NODE_LABEL09 "Si(531)"
*CORR_POS_NODE_LABEL10 "Si(620)"
*CORR_POS_NODE_LABEL11 "Si(533)"
*CORR_POS_NODE_POS_CALC01 "28.377"
*CORR_POS_NODE_POS_CALC02 "47.2506"
*CORR_POS_NODE_POS_CALC03 "56.0725"
*CORR_POS_NODE_POS_CALC04 "69.0822"
*CORR_POS_NODE_POS_CALC05 "76.3294"
*CORR_POS_NODE_POS_CALC06 "87.9853"
*CORR_POS_NODE_POS_CALC07 "94.9091"
*CORR_POS_NODE_POS_CALC08 "106.668"
*CORR_POS_NODE_POS_CALC09 "114.054"
*CORR_POS_NODE_POS_CALC10 "127.511"
*CORR_POS_NODE_POS_CALC11 "136.864"
*CORR_POS_NODE_POS_MEAS01 "28.377"
*CORR_POS_NODE_POS_MEAS02 "47.2506"
*CORR_POS_NODE_POS_MEAS03 "56.0725"
*CORR_POS_NODE_POS_MEAS04 "69.0822"
*CORR_POS_NODE_POS_MEAS05 "76.3294"
*CORR_POS_NODE_POS_MEAS06 "87.9853"
*CORR_POS_NODE_POS_MEAS07 "94.9091"
*CORR_POS_NODE_POS_MEAS08 "106.668"
*CORR_POS_NODE_POS_MEAS09 "114.054"
*CORR_POS_NODE_POS_MEAS10 "127.511"
*CORR_POS_NODE_POS_MEAS11 "136.864"
*CORR_POS_OPT_ATTR "集中法"
*CORR_POS_PARAM_MU ""
*CORR_POS_PARAM_PL ""
*CORR_POS_SEMODEL_TYPE "0"
*CORR_POS_STANDARD_TYPE ""
*CORR_POS_VALUE_ANALYZER "None"
*CORR_POS_VALUE_CMONO "None"
*CORR_POS_VALUE_IMONO "None"
*CORR_POS_VALUE_IS "1.250deg"
*CORR_POS_VALUE_ISL "10.0mm"
*CORR_POS_VALUE_ISOLLER "5.0deg"
*CORR_POS_VALUE_RS1 "1.250deg"
*CORR_POS_VALUE_RS2 "0.3mm"
*CORR_POS_VALUE_RSOLLER "5.0deg"
*CORR_POS_XG_FOCUS_L ""
*CORR_POS_XG_WAVE_TYPE ""
*CORR_POS_XG_WAVE_VALUE ""
*DISP_FMT_X "%.2f"
*DISP_FMT_Y "%.0f"
*DISP_FULLSCALE "43440.0000000000"
*DISP_LINE_COLOR "255.0000000000"
*DISP_LINE_STYLE "0.0000000000"
*DISP_LINE_WIDTH "0.2500000000"
*DISP_NOTE "測定データ-2"
*DISP_OFFSET_Y "0.0000000000"
*DISP_PEAKSEARCH_UNIT_Y "CPS"
*DISP_RANGE_BOTTOM "0.0000000000"
*DISP_RANGE_LEFT "3.0000000000"
*DISP_RANGE_LOGCUTOFF "0.0100000000"
*DISP_RANGE_RIGHT "55.0000000000"
*DISP_RANGE_TOP "43440.0000000000"
*DISP_SCALE_MODE_Y "0.0000000000"
*DISP_TAB_NAME "2θ/θ"
*DISP_TITLE_Y "強度"
*DISP_UNIT_Y "CPS"
*DISP_WINDOW_NAME "MSG_MACROENGINE"
*FILE_COMMENT " "
*FILE_MD5 ""
*FILE_MEMO " "
*FILE_OPERATOR "administrator"
*FILE_PART_ID "MEAS_PBEA_00223"
*FILE_SAMPLE " "
*FILE_TYPE "RAS_RAW"
*FILE_USERGROUP "システムマネージャ"
*FILE_VERSION "1.0000000000"
*HW_ATTACHMENT_ID "ATT1031"
*HW_ATTACHMENT_NAME "6サンプルチェンジャ|ASC-6"
*HW_COUNTER_ID-0 "CUT0025"
*HW_COUNTER_ID-1 "CUT0020"
*HW_COUNTER_ID-2 "CUT0020"
*HW_COUNTER_ID-3 "CMC0021"
*HW_COUNTER_NAME-0 "D/teX Ultra|D/teX Ultra"
*HW_COUNTER_NAME-1 "None|None"
*HW_COUNTER_NAME-2 "None|None"
*HW_COUNTER_NAME-3 "検出器モノクロメータ|Detector monochromator"
*HW_COUNTER_SELECT_NAME "D/teX Ultra|D/teX Ultra"
*HW_GONIOMETER_ID "GON0070"
*HW_GONIOMETER_NAME "MiniFlex 300/600|MiniFlex 300/600"
*HW_GONIOMETER_RADIUS-0 "79.0"
*HW_GONIOMETER_RADIUS-1 "91.5"
*HW_GONIOMETER_RADIUS-2 "150.0"
*HW_GONIOMETER_RADIUS-3 "0"
*HW_GONIOMETER_RADIUS-4 "103.4"
*HW_GONIOMETER_RADIUS-5 "150.0"
*HW_GONIOMETER_RADIUS-6 "46.6"
*HW_GONIOMETER_RADIUS-7 "160.0"
*HW_I_OPT_ID-0 "ISL0021"
*HW_I_OPT_ID-1 "ISO0021"
*HW_I_OPT_NAME-0 "発散スリット|Divergence slit"
*HW_I_OPT_NAME-1 "入射平行スリット|Incident parallel slit"
*HW_R_ATTENUATER_AUTOMODE "0"
*HW_R_OPT_ID-0 "RSS0021"
*HW_R_OPT_ID-1 "RSO0021"
*HW_R_OPT_ID-2 "RRS0021"
*HW_R_OPT_NAME-0 "散乱スリット|Scattering slit"
*HW_R_OPT_NAME-1 "受光平行スリット|Receiving soller slit"
*HW_R_OPT_NAME-2 "受光スリット|Receiving slit"
*HW_SAMPLE_HOLDER_ID "SMP0000"
*HW_SAMPLE_HOLDER_NAME "無し|None"
*HW_XG_CURRENT_MAX "15"
*HW_XG_CURRENT_MIN "2"
*HW_XG_CURRENT_RESOLUTION "1"
*HW_XG_CURRENT_UNIT "mA"
*HW_XG_FOCUS "1mm x 10mm"
*HW_XG_FOCUS_TYPE "Normal"
*HW_XG_ID "1060"
*HW_XG_NAME "300W/600W 封入管-B|300W/600W Sealed tube-B"
*HW_XG_TARGET_ATOMIC_NUMBER "29.0000000000"
*HW_XG_TARGET_NAME "Cu"
*HW_XG_TYPE "Hermetic"
*HW_XG_VOLTAGE_MAX "40"
*HW_XG_VOLTAGE_MIN "20"
*HW_XG_VOLTAGE_RESOLUTION "1"
*HW_XG_VOLTAGE_UNIT "kV"
*HW_XG_WATT_MAX "1"
*HW_XG_WATT_UNIT "kW"
*HW_XG_WAVE_LENGTH_ALPHA1 "1.540593"
*HW_XG_WAVE_LENGTH_ALPHA2 "1.544414"
*HW_XG_WAVE_LENGTH_BETA "1.392250"
*MEAS_COND_AXIS_NAME-0 "2θ/θ"
*MEAS_COND_AXIS_NAME-1 "試料回転"
*MEAS_COND_AXIS_NAME-2 "試料交換"
*MEAS_COND_AXIS_NAME-3 "Soller(inc.)"
*MEAS_COND_AXIS_NAME-4 "IHS"
*MEAS_COND_AXIS_NAME-5 "DS"
*MEAS_COND_AXIS_NAME-6 "SS"
*MEAS_COND_AXIS_NAME-7 "Soller(rec.)"
*MEAS_COND_AXIS_NAME-8 "RS"
*MEAS_COND_AXIS_NAME-9 "フィルター"
*MEAS_COND_AXIS_NAME-10 "モノクロメータ"
*MEAS_COND_AXIS_NAME-11 "PHA"
*MEAS_COND_AXIS_NAME_INTERNAL-0 "TwoThetaTheta"
*MEAS_COND_AXIS_NAME_INTERNAL-1 "Spin"
*MEAS_COND_AXIS_NAME_INTERNAL-2 "Change"
*MEAS_COND_AXIS_NAME_INTERNAL-3 "IncidentSollerSlit"
*MEAS_COND_AXIS_NAME_INTERNAL-4 "IncidentAxdSlit"
*MEAS_COND_AXIS_NAME_INTERNAL-5 "IncidentSlitBox"
*MEAS_COND_AXIS_NAME_INTERNAL-6 "ReceivingSlitBox1"
*MEAS_COND_AXIS_NAME_INTERNAL-7 "ReceivingSollerSlit"
*MEAS_COND_AXIS_NAME_INTERNAL-8 "ReceivingSlitBox2"
*MEAS_COND_AXIS_NAME_INTERNAL-9 "Filter"
*MEAS_COND_AXIS_NAME_INTERNAL-10 "CounterMonochromator"
*MEAS_COND_AXIS_NAME_INTERNAL-11 "PHA"
*MEAS_COND_AXIS_NAME_MAGICNO-0 "268632064.0000000000"
*MEAS_COND_AXIS_NAME_MAGICNO-1 "16842752.0000000000"
*MEAS_COND_AXIS_NAME_MAGICNO-2 "16842752.0000000000"
*MEAS_COND_AXIS_NAME_MAGICNO-3 "20971521.0000000000"
*MEAS_COND_AXIS_NAME_MAGICNO-4 "22020097.0000000000"
*MEAS_COND_AXIS_NAME_MAGICNO-5 "22020097.0000000000"
*MEAS_COND_AXIS_NAME_MAGICNO-6 "23068673.0000000000"
*MEAS_COND_AXIS_NAME_MAGICNO-7 "20971521.0000000000"
*MEAS_COND_AXIS_NAME_MAGICNO-8 "23068673.0000000000"
*MEAS_COND_AXIS_NAME_MAGICNO-9 "20971521.0000000000"
*MEAS_COND_AXIS_NAME_MAGICNO-10 "20971521.0000000000"
*MEAS_COND_AXIS_NAME_MAGICNO-11 "0.0000000000"
*MEAS_COND_AXIS_OFFSET-0 "0.0000000000"
*MEAS_COND_AXIS_OFFSET-1 "-"
*MEAS_COND_AXIS_OFFSET-2 "-"
*MEAS_COND_AXIS_OFFSET-3 "-"
*MEAS_COND_AXIS_OFFSET-4 "-"
*MEAS_COND_AXIS_OFFSET-5 "-"
*MEAS_COND_AXIS_OFFSET-6 "-"
*MEAS_COND_AXIS_OFFSET-7 "-"
*MEAS_COND_AXIS_OFFSET-8 "-"
*MEAS_COND_AXIS_OFFSET-9 "-"
*MEAS_COND_AXIS_OFFSET-10 "-"
*MEAS_COND_AXIS_OFFSET-11 "-"
*MEAS_COND_AXIS_POSITION-0 "57.5400000000"
*MEAS_COND_AXIS_POSITION-1 "0.0000000000"
*MEAS_COND_AXIS_POSITION-2 "5.0000000000"
*MEAS_COND_AXIS_POSITION-3 "2.5deg"
*MEAS_COND_AXIS_POSITION-4 "10.0mm"
*MEAS_COND_AXIS_POSITION-5 "1.250deg"
*MEAS_COND_AXIS_POSITION-6 "13.0mm(Open)"
*MEAS_COND_AXIS_POSITION-7 "2.5deg"
*MEAS_COND_AXIS_POSITION-8 "13.0mm"
*MEAS_COND_AXIS_POSITION-9 "K-beta(x1)"
*MEAS_COND_AXIS_POSITION-10 "None"
*MEAS_COND_AXIS_POSITION-11 "34.0000000000"
*MEAS_COND_AXIS_UNIT-0 "deg"
*MEAS_COND_AXIS_UNIT-1 ""
*MEAS_COND_AXIS_UNIT-2 ""
*MEAS_COND_AXIS_UNIT-3 ""
*MEAS_COND_AXIS_UNIT-4 ""
*MEAS_COND_AXIS_UNIT-5 ""
*MEAS_COND_AXIS_UNIT-6 ""
*MEAS_COND_AXIS_UNIT-7 ""
*MEAS_COND_AXIS_UNIT-8 ""
*MEAS_COND_AXIS_UNIT-9 ""
*MEAS_COND_AXIS_UNIT-10 ""
*MEAS_COND_AXIS_UNIT-11 "div"
*MEAS_COND_COUNTER_CNTLOSS_CORR "0.0000000000"
*MEAS_COND_COUNTER_PHABASE "34.0000000000"
*MEAS_COND_COUNTER_PHAWINDOW "14.0000000000"
*MEAS_COND_COUNTER_PHA_UNIT "div"
*MEAS_COND_COUNTER_TAUDIFF "0.2500000000"
*MEAS_COND_COUNTER_TAUINT "0.7500000000"
*MEAS_COND_IRRADIATION_MODE "OFF"
*MEAS_COND_IRRADIATION_WIDTH ""
*MEAS_COND_OPT_ATTR " "
*MEAS_COND_OPT_NAME ""
*MEAS_COND_UNSYMMETRIC_MODE "OFF"
*MEAS_COND_XG_CURRENT "15.0000000000"
*MEAS_COND_XG_VOLTAGE "40.0000000000"
*MEAS_COND_XG_WAVE_TYPE "Ka"
*MEAS_DATA_COUNT "5201.0000000000"
*MEAS_SCAN_AXIS_X "2θ/θ"
*MEAS_SCAN_AXIS_X_INTERNAL "TwoThetaTheta"
*MEAS_SCAN_END_TIME "11/24/23 10:43:36"
*MEAS_SCAN_MODE "CONTINUOUS"
*MEAS_SCAN_MONITOR "0"
*MEAS_SCAN_RESOLUTION_X "0.005"
*MEAS_SCAN_SPEED "10.000"
*MEAS_SCAN_SPEED_UNIT "deg/min"
*MEAS_SCAN_SPEED_USER "10.000"
*MEAS_SCAN_START "3.0000000000"
*MEAS_SCAN_START_TIME "11/24/23 10:37:31"
*MEAS_SCAN_STEP "0.0100000000"
*MEAS_SCAN_STOP "55.0000000000"
*MEAS_SCAN_UNIT_X "deg"
*MEAS_SCAN_UNIT_Y "counts"
*SLIT_SYSTEM "0"
*RAS_HEADER_END
*RAS_INT_START
3.000 99.000 1.000
3.010 106.000 1.000
3.020 113.000 1.000
3.030 121.000 1.000
3.040 116.000 1.000
3.050 94.000 1.000
3.060 100.000 1.000
3.070 103.000 1.000
3.080 100.000 1.000
3.090 109.000 1.000
3.100 116.000 1.000
3.110 125.000 1.000
3.120 102.000 1.000
3.130 91.000 1.000
3.140 93.000 1.000
3.150 103.000 1.000
3.160 108.000 1.000
3.170 120.000 1.000
3.180 101.000 1.000
3.190 89.000 1.000
3.200 110.000 1.000
3.210 111.000 1.000
3.220 105.000 1.000
3.230 101.000 1.000
3.240 103.000 1.000
3.250 99.000 1.000
3.260 100.000 1.000
3.270 93.000 1.000
3.280 99.000 1.000
3.290 95.000 1.000
3.300 110.000 1.000
3.310 108.000 1.000
3.320 115.000 1.000
3.330 98.000 1.000
3.340 95.000 1.000
3.350 88.000 1.000
3.360 97.000 1.000
3.370 100.000 1.000
3.380 101.000 1.000
3.390 111.000 1.000
3.400 97.000 1.000
3.410 86.000 1.000
3.420 96.000 1.000
3.430 89.000 1.000
3.440 83.000 1.000
3.450 96.000 1.000
3.460 94.000 1.000
3.470 100.000 1.000
3.480 81.000 1.000
3.490 96.000 1.000
3.500 105.000 1.000
3.510 107.000 1.000
3.520 82.000 1.000
3.530 84.000 1.000
3.540 91.000 1.000
3.550 89.000 1.000
3.560 93.000 1.000
3.570 92.000 1.000
3.580 93.000 1.000
3.590 81.000 1.000
3.600 75.000 1.000
3.610 83.000 1.000
3.620 93.000 1.000
3.630 85.000 1.000
3.640 71.000 1.000
3.650 81.000 1.000
3.660 100.000 1.000
3.670 95.000 1.000
3.680 94.000 1.000
3.690 86.000 1.000
3.700 92.000 1.000
3.710 82.000 1.000
3.720 92.000 1.000
3.730 91.000 1.000
3.740 94.000 1.000
3.750 94.000 1.000
3.760 96.000 1.000
3.770 90.000 1.000
3.780 92.000 1.000
3.790 92.000 1.000
3.800 85.000 1.000
3.810 99.000 1.000
3.820 101.000 1.000
3.830 80.000 1.000
3.840 77.000 1.000
3.850 73.000 1.000
3.860 79.000 1.000
3.870 81.000 1.000
3.880 75.000 1.000
3.890 78.000 1.000
3.900 80.000 1.000
3.910 78.000 1.000
3.920 87.000 1.000
3.930 93.000 1.000
3.940 80.000 1.000
3.950 78.000 1.000
3.960 68.000 1.000
3.970 87.000 1.000
3.980 84.000 1.000
3.990 82.000 1.000
4.000 79.000 1.000
4.010 81.000 1.000
4.020 73.000 1.000
4.030 80.000 1.000
4.040 82.000 1.000
4.050 78.000 1.000
4.060 85.000 1.000
4.070 84.000 1.000
4.080 89.000 1.000
4.090 82.000 1.000
4.100 83.000 1.000
4.110 87.000 1.000
4.120 83.000 1.000
4.130 84.000 1.000
4.140 88.000 1.000
4.150 68.000 1.000
4.160 76.000 1.000
4.170 89.000 1.000
4.180 79.000 1.000
4.190 77.000 1.000
4.200 77.000 1.000
4.210 69.000 1.000
4.220 67.000 1.000
4.230 78.000 1.000
4.240 90.000 1.000
4.250 85.000 1.000
4.260 77.000 1.000
4.270 77.000 1.000
4.280 75.000 1.000
4.290 69.000 1.000
4.300 69.000 1.000
4.310 71.000 1.000
4.320 77.000 1.000
4.330 76.000 1.000
4.340 71.000 1.000
4.350 69.000 1.000
4.360 89.000 1.000
4.370 85.000 1.000
4.380 78.000 1.000
4.390 77.000 1.000
4.400 77.000 1.000
4.410 69.000 1.000
4.420 71.000 1.000
4.430 87.000 1.000
4.440 83.000 1.000
4.450 77.000 1.000
4.460 77.000 1.000
4.470 63.000 1.000
4.480 60.000 1.000
4.490 65.000 1.000
4.500 64.000 1.000
4.510 82.000 1.000
4.520 75.000 1.000
4.530 69.000 1.000
4.540 84.000 1.000
4.550 84.000 1.000
4.560 68.000 1.000
4.570 68.000 1.000
4.580 71.000 1.000
4.590 69.000 1.000
4.600 67.000 1.000
4.610 58.000 1.000
4.620 77.000 1.000
4.630 81.000 1.000
4.640 71.000 1.000
4.650 81.000 1.000
4.660 80.000 1.000
4.670 78.000 1.000
4.680 82.000 1.000
4.690 85.000 1.000
4.700 79.000 1.000
4.710 69.000 1.000
4.720 67.000 1.000
4.730 76.000 1.000
4.740 75.000 1.000
4.750 73.000 1.000
4.760 76.000 1.000
4.770 65.000 1.000
4.780 75.000 1.000
4.790 60.000 1.000
4.800 68.000 1.000
4.810 60.000 1.000
4.820 75.000 1.000
4.830 73.000 1.000
4.840 71.000 1.000
4.850 77.000 1.000
4.860 69.000 1.000
4.870 80.000 1.000
4.880 81.000 1.000
4.890 86.000 1.000
4.900 84.000 1.000
4.910 84.000 1.000
4.920 81.000 1.000
4.930 80.000 1.000
4.940 82.000 1.000
4.950 86.000 1.000
4.960 91.000 1.000
4.970 89.000 1.000
4.980 96.000 1.000
4.990 83.000 1.000
5.000 80.000 1.000
5.010 82.000 1.000
5.020 79.000 1.000
5.030 93.000 1.000
5.040 85.000 1.000
5.050 95.000 1.000
5.060 89.000 1.000
5.070 93.000 1.000
5.080 85.000 1.000
5.090 86.000 1.000
5.100 85.000 1.000
5.110 95.000 1.000
5.120 90.000 1.000
5.130 82.000 1.000
5.140 94.000 1.000
5.150 103.000 1.000
5.160 95.000 1.000
5.170 89.000 1.000
5.180 93.000 1.000
5.190 91.000 1.000
5.200 90.000 1.000
5.210 94.000 1.000
5.220 89.000 1.000
5.230 84.000 1.000
5.240 89.000 1.000
5.250 84.000 1.000
5.260 95.000 1.000
5.270 81.000 1.000
5.280 70.000 1.000
5.290 61.000 1.000
5.300 62.000 1.000
5.310 73.000 1.000
5.320 76.000 1.000
5.330 70.000 1.000
5.340 82.000 1.000
5.350 74.000 1.000
5.360 81.000 1.000
5.370 83.000 1.000
5.380 93.000 1.000
5.390 81.000 1.000
5.400 81.000 1.000
5.410 66.000 1.000
5.420 78.000 1.000
5.430 66.000 1.000
5.440 79.000 1.000
5.450 76.000 1.000
5.460 71.000 1.000
5.470 63.000 1.000
5.480 66.000 1.000
5.490 67.000 1.000
5.500 73.000 1.000
5.510 66.000 1.000
5.520 69.000 1.000
5.530 74.000 1.000
5.540 70.000 1.000
5.550 69.000 1.000
5.560 71.000 1.000
5.570 68.000 1.000
5.580 72.000 1.000
5.590 80.000 1.000
5.600 66.000 1.000
5.610 78.000 1.000
5.620 70.000 1.000
5.630 63.000 1.000
5.640 64.000 1.000
5.650 79.000 1.000
5.660 76.000 1.000
5.670 64.000 1.000
5.680 73.000 1.000
5.690 68.000 1.000
5.700 67.000 1.000
5.710 83.000 1.000
5.720 75.000 1.000
5.730 64.000 1.000
5.740 78.000 1.000
5.750 77.000 1.000
5.760 72.000 1.000
5.770 75.000 1.000
5.780 76.000 1.000
5.790 73.000 1.000
5.800 69.000 1.000
5.810 68.000 1.000
5.820 78.000 1.000
5.830 85.000 1.000
5.840 76.000 1.000
5.850 68.000 1.000
5.860 66.000 1.000
5.870 72.000 1.000
5.880 83.000 1.000
5.890 77.000 1.000
5.900 75.000 1.000
5.910 68.000 1.000
5.920 76.000 1.000
5.930 76.000 1.000
5.940 86.000 1.000
5.950 88.000 1.000
5.960 76.000 1.000
5.970 72.000 1.000
5.980 73.000 1.000
5.990 67.000 1.000
6.000 71.000 1.000
6.010 71.000 1.000
6.020 75.000 1.000
6.030 70.000 1.000
6.040 69.000 1.000
6.050 65.000 1.000
6.060 68.000 1.000
6.070 82.000 1.000
6.080 75.000 1.000
6.090 79.000 1.000
6.100 80.000 1.000
6.110 74.000 1.000
6.120 84.000 1.000
6.130 70.000 1.000
6.140 77.000 1.000
6.150 85.000 1.000
6.160 80.000 1.000
6.170 77.000 1.000
6.180 79.000 1.000
6.190 75.000 1.000
6.200 71.000 1.000
6.210 79.000 1.000
6.220 71.000 1.000
6.230 62.000 1.000
6.240 76.000 1.000
6.250 82.000 1.000
6.260 85.000 1.000
6.270 79.000 1.000
6.280 74.000 1.000
6.290 62.000 1.000
6.300 84.000 1.000
6.310 72.000 1.000
6.320 80.000 1.000
6.330 77.000 1.000
6.340 83.000 1.000
6.350 71.000 1.000
6.360 73.000 1.000
6.370 69.000 1.000
6.380 72.000 1.000
6.390 81.000 1.000
6.400 86.000 1.000
6.410 79.000 1.000
6.420 80.000 1.000
6.430 72.000 1.000
6.440 75.000 1.000
6.450 80.000 1.000
6.460 75.000 1.000
6.470 79.000 1.000
6.480 83.000 1.000
6.490 86.000 1.000
6.500 73.000 1.000
6.510 86.000 1.000
6.520 83.000 1.000
6.530 80.000 1.000
6.540 76.000 1.000
6.550 81.000 1.000
6.560 85.000 1.000
6.570 91.000 1.000
6.580 79.000 1.000
6.590 84.000 1.000
6.600 89.000 1.000
6.610 90.000 1.000
6.620 77.000 1.000
6.630 75.000 1.000
6.640 69.000 1.000
6.650 72.000 1.000
6.660 77.000 1.000
6.670 86.000 1.000
6.680 84.000 1.000
6.690 72.000 1.000
6.700 81.000 1.000
6.710 80.000 1.000
6.720 81.000 1.000
6.730 72.000 1.000
6.740 81.000 1.000
6.750 92.000 1.000
6.760 85.000 1.000
6.770 81.000 1.000
6.780 84.000 1.000
6.790 89.000 1.000
6.800 78.000 1.000
6.810 74.000 1.000
6.820 85.000 1.000
6.830 98.000 1.000
6.840 94.000 1.000
6.850 83.000 1.000
6.860 88.000 1.000
6.870 90.000 1.000
6.880 71.000 1.000
6.890 75.000 1.000
6.900 84.000 1.000
6.910 93.000 1.000
6.920 82.000 1.000
6.930 74.000 1.000
6.940 68.000 1.000
6.950 84.000 1.000
6.960 88.000 1.000
6.970 85.000 1.000
6.980 79.000 1.000
6.990 80.000 1.000
7.000 86.000 1.000
7.010 93.000 1.000
7.020 94.000 1.000
7.030 95.000 1.000
7.040 82.000 1.000
7.050 83.000 1.000
7.060 87.000 1.000
7.070 89.000 1.000
7.080 82.000 1.000
7.090 85.000 1.000
7.100 77.000 1.000
7.110 81.000 1.000
7.120 96.000 1.000
7.130 92.000 1.000
7.140 92.000 1.000
7.150 85.000 1.000
7.160 84.000 1.000
7.170 95.000 1.000
7.180 82.000 1.000
7.190 89.000 1.000
7.200 88.000 1.000
7.210 87.000 1.000
7.220 87.000 1.000
7.230 89.000 1.000
7.240 99.000 1.000
7.250 91.000 1.000
7.260 84.000 1.000
7.270 79.000 1.000
7.280 79.000 1.000
7.290 87.000 1.000
7.300 81.000 1.000
7.310 88.000 1.000
7.320 90.000 1.000
7.330 77.000 1.000
7.340 79.000 1.000
7.350 97.000 1.000
7.360 96.000 1.000
7.370 95.000 1.000
7.380 86.000 1.000
7.390 99.000 1.000
7.400 100.000 1.000
7.410 94.000 1.000
7.420 88.000 1.000
7.430 83.000 1.000
7.440 96.000 1.000
7.450 92.000 1.000
7.460 90.000 1.000
7.470 99.000 1.000
7.480 87.000 1.000
7.490 95.000 1.000
7.500 107.000 1.000
7.510 101.000 1.000
7.520 97.000 1.000
7.530 91.000 1.000
7.540 100.000 1.000
7.550 99.000 1.000
7.560 89.000 1.000
7.570 84.000 1.000
7.580 92.000 1.000
7.590 90.000 1.000
7.600 91.000 1.000
7.610 93.000 1.000
7.620 108.000 1.000
7.630 102.000 1.000
7.640 89.000 1.000
7.650 93.000 1.000
7.660 104.000 1.000
7.670 104.000 1.000
7.680 102.000 1.000
7.690 101.000 1.000
7.700 101.000 1.000
7.710 125.000 1.000
7.720 105.000 1.000
7.730 103.000 1.000
7.740 120.000 1.000
7.750 122.000 1.000
7.760 136.000 1.000
7.770 132.000 1.000
7.780 152.000 1.000
7.790 144.000 1.000
7.800 163.000 1.000
7.810 175.000 1.000
7.820 183.000 1.000
7.830 196.000 1.000
7.840 230.000 1.000
7.850 242.000 1.000
7.860 263.000 1.000
7.870 285.000 1.000
7.880 296.000 1.000
7.890 318.000 1.000
7.900 357.000 1.000
7.910 368.000 1.000
7.920 378.000 1.000
7.930 403.000 1.000
7.940 418.000 1.000
7.950 358.000 1.000
7.960 311.000 1.000
7.970 271.000 1.000
7.980 246.000 1.000
7.990 224.000 1.000
8.000 174.000 1.000
8.010 166.000 1.000
8.020 164.000 1.000
8.030 151.000 1.000
8.040 139.000 1.000
8.050 130.000 1.000
8.060 135.000 1.000
8.070 130.000 1.000
8.080 121.000 1.000
8.090 124.000 1.000
8.100 124.000 1.000
8.110 124.000 1.000
8.120 116.000 1.000
8.130 122.000 1.000
8.140 135.000 1.000
8.150 141.000 1.000
8.160 127.000 1.000
8.170 134.000 1.000
8.180 135.000 1.000
8.190 118.000 1.000
8.200 141.000 1.000
8.210 138.000 1.000
8.220 131.000 1.000
8.230 127.000 1.000
8.240 133.000 1.000
8.250 119.000 1.000
8.260 120.000 1.000
8.270 127.000 1.000
8.280 130.000 1.000
8.290 125.000 1.000
8.300 125.000 1.000
8.310 123.000 1.000
8.320 124.000 1.000
8.330 119.000 1.000
8.340 116.000 1.000
8.350 127.000 1.000
8.360 120.000 1.000
8.370 119.000 1.000
8.380 106.000 1.000
8.390 101.000 1.000
8.400 106.000 1.000
8.410 94.000 1.000
8.420 108.000 1.000
8.430 115.000 1.000
8.440 109.000 1.000
8.450 106.000 1.000
8.460 111.000 1.000
8.470 109.000 1.000
8.480 101.000 1.000
8.490 106.000 1.000
8.500 95.000 1.000
8.510 103.000 1.000
8.520 116.000 1.000
8.530 116.000 1.000
8.540 110.000 1.000
8.550 104.000 1.000
8.560 103.000 1.000
8.570 114.000 1.000
8.580 113.000 1.000
8.590 105.000 1.000
8.600 111.000 1.000
8.610 123.000 1.000
8.620 117.000 1.000
8.630 101.000 1.000
8.640 116.000 1.000
8.650 120.000 1.000
